ALV-7004 CGS-8F Data, Single Run Data
Date :	"11.05.2021"
Time :	"09:22:27"
Samplename : 	"092 2021 Toluol"
SampMemo(0) : 	"Toluol-Messung "
SampMemo(1) : 	""
SampMemo(2) : 	""
SampMemo(3) : 	""
SampMemo(4) : 	""
SampMemo(5) : 	""
SampMemo(6) : 	""
SampMemo(7) : 	""
SampMemo(8) : 	""
SampMemo(9) : 	""
Temperature [K] :	     292.94403
Viscosity [cp]  :	       1.00682
Refractive Index:	       1.33200
Wavelength [nm] :	     632.80000
Angle(1)[°]     :	      26.00000
Angle(2)[°]     :	      42.00000
Angle(3)[°]     :	      58.00000
Angle(4)[°]     :	      74.00000
Angle(5)[°]     :	      90.00000
Angle(6)[°]     :	     106.00000
Angle(7)[°]     :	     122.00000
Angle(8)[°]     :	     138.00000
Duration [s]    :	          30.0
Runs            :	         1
Mode            :	"8 x AUTO, 100 ns STC"
MeanCR1 [kHz]   :	      32.19791
MeanCR2 [kHz]   :	      24.23757
MeanCR3 [kHz]   :	      22.33298
MeanCR4 [kHz]   :	      18.42479
MeanCR5 [kHz]   :	      18.56454
MeanCR6 [kHz]   :	      24.03723
MeanCR7 [kHz]   :	      29.37397
MeanCR8 [kHz]   :	      43.73744
Atten[1]        :	       1.00000
Atten[2]        :	       1.00000
Atten[3]        :	       1.00000
RelSens[1]      :	       1.00000
RelSens[2]      :	       1.00000
RelSens[3]      :	       1.00000
RelSens[4]      :	       1.00000
RelSens[5]      :	       1.00000
RelSens[6]      :	       1.00000
RelSens[7]      :	       1.00000
RelSens[8]      :	       1.00000
DC[1][kHz]      :	       0.00000
DC[2][kHz]      :	       0.00000
DC[3][kHz]      :	       0.00000
DC[4][kHz]      :	       0.00000
DC[5][kHz]      :	       0.00000
DC[6][kHz]      :	       0.00000
DC[7][kHz]      :	       0.00000
DC[8][kHz]      :	       0.00000

"Correlation"
  1.00000E-004	 -1.28222E-001	  1.35720E-001	 -7.76197E-002	  4.68707E-002	  4.29208E-002	  3.02689E-001	  2.27332E-001	 -5.62896E-002
  2.00000E-004	  5.31933E-002	  1.03837E-001	  3.62170E-002	  5.02570E-002	  1.13398E-001	  1.18835E-001	  1.12957E-001	  7.07607E-002
  3.00000E-004	  1.53676E-002	  4.18097E-002	  2.36646E-002	 -5.13423E-003	 -1.15950E-002	  2.47356E-002	  7.59196E-002	  1.60808E-002
  4.00000E-004	  6.69555E-003	  2.40323E-002	  1.58983E-003	  1.90541E-002	 -1.20861E-002	 -1.97237E-002	  8.37308E-003	  4.04455E-002
  5.00000E-004	  1.14455E-002	  4.88626E-002	 -3.27488E-002	  2.31661E-002	 -5.84982E-002	  2.84023E-003	 -1.51831E-002	  3.57012E-002
  6.00000E-004	  1.13584E-002	  5.54664E-004	 -9.37544E-003	 -9.73002E-003	 -2.75568E-002	  2.55713E-002	  8.08927E-003	  1.27035E-002
  7.00000E-004	 -6.50859E-003	  2.81868E-002	  5.91821E-003	 -2.61781E-002	  1.41895E-002	  1.92200E-002	 -1.34802E-002	  1.23819E-002
  8.00000E-004	  1.64134E-002	  1.17621E-002	  1.46998E-004	 -7.31122E-003	  3.62905E-002	  2.84021E-003	  9.79210E-003	  5.91814E-002
  9.00000E-004	 -6.07284E-003	  1.94914E-002	 -1.19725E-002	  4.39680E-002	 -4.22908E-002	  4.56281E-002	 -5.53359E-003	  3.85821E-003
  1.00000E-003	  3.36703E-002	  2.87665E-002	  7.64954E-003	 -3.05320E-002	  3.72727E-002	  2.49027E-002	 -3.26311E-003	 -5.79118E-003
  1.10000E-003	  3.34001E-003	  3.26311E-002	 -1.71666E-002	  4.78382E-002	 -2.06809E-002	 -4.51395E-003	  3.93082E-002	  1.02911E-002
  1.20000E-003	  3.34001E-003	 -2.34061E-002	  1.63063E-002	  2.94550E-002	 -6.92923E-003	 -1.52109E-002	  1.49007E-002	 -2.63765E-002
  1.30000E-003	  5.95469E-003	 -6.78817E-003	  1.80377E-002	  1.39745E-002	 -1.28228E-002	 -1.85537E-002	  9.79210E-003	 -1.73705E-002
  1.40000E-003	 -1.70545E-002	  4.03281E-003	  7.64954E-003	 -1.40839E-002	  7.80476E-003	  1.01944E-002	 -4.12935E-002	 -1.99436E-002
  1.50000E-003	  2.21657E-002	  2.52883E-002	  5.34107E-003	  3.23576E-002	  1.17338E-002	  1.68800E-002	  1.42593E-004	  1.51158E-002
  1.60000E-003	 -5.82060E-004	 -2.15066E-003	  2.95800E-002	 -3.92491E-003	 -1.03569E-003	  1.42057E-002	 -6.66887E-003	  2.65342E-002
  1.80000E-003	 -4.76555E-003	  1.65928E-002	  1.46945E-004	  1.68771E-002	  4.36678E-003	 -1.25367E-002	  4.68348E-003	 -9.49017E-003
  2.00000E-003	 -7.20592E-003	  7.51093E-003	  8.22661E-003	  7.68549E-003	 -1.67519E-002	  2.50587E-003	  3.39158E-002	  1.09344E-002
  2.20000E-003	  5.78033E-003	 -3.69652E-003	 -1.88980E-002	  9.13679E-003	  5.34904E-003	  2.62398E-002	 -1.29127E-002	  1.97796E-002
  2.40000E-003	 -1.71509E-003	  3.83953E-003	  2.69830E-002	 -4.55288E-002	 -1.77342E-002	  5.84867E-003	  3.26444E-003	 -1.30283E-002
  2.60000E-003	  1.50189E-002	  1.15688E-002	 -1.68781E-002	 -4.11749E-002	  6.82244E-003	 -1.68824E-002	 -5.53364E-003	  5.62721E-003
  2.80000E-003	  1.10097E-002	 -1.57097E-003	 -2.16153E-003	  2.60686E-002	  1.56628E-002	 -3.51117E-003	  1.26301E-002	  2.74992E-002
  3.00000E-003	  2.11978E-003	  1.29214E-002	 -7.64416E-003	 -8.27702E-003	 -1.62608E-002	 -2.72451E-002	 -2.36974E-002	 -2.70199E-002
  3.20000E-003	  1.03123E-002	  1.29213E-002	 -1.44024E-003	 -1.02062E-003	 -2.99093E-004	 -3.17699E-003	 -1.71699E-002	 -1.25449E-002
  3.60000E-003	  2.51187E-003	  3.61246E-004	  7.07226E-003	  1.13154E-002	 -5.44659E-004	 -1.03640E-002	  1.54681E-002	 -1.27057E-002
  4.00000E-003	 -3.67620E-003	  1.06992E-002	 -1.64453E-002	 -1.26310E-002	 -1.79799E-002	 -2.40695E-002	 -1.19194E-002	 -4.02126E-003
  4.40000E-003	 -5.20143E-003	  1.14721E-002	 -1.52911E-002	  2.36515E-002	 -1.52786E-002	  2.10583E-002	  1.81643E-002	 -6.35319E-003
  4.80000E-003	  2.11967E-003	  1.13755E-002	 -8.36566E-003	  1.80882E-002	 -1.55242E-002	  4.31208E-002	  8.51955E-004	 -9.24801E-003
  5.20000E-003	  7.61050E-003	 -4.11681E-004	  7.93794E-003	 -1.98815E-003	  2.81866E-002	  2.22283E-002	 -8.65564E-003	  1.82528E-002
  5.60000E-003	 -1.32299E-003	  6.25482E-003	  6.06231E-003	 -6.58394E-003	 -5.21042E-003	  5.34715E-003	  2.84337E-004	 -8.85201E-004
  6.00000E-003	  1.49752E-002	  1.68015E-004	 -7.78854E-003	 -4.89076E-003	  1.86095E-002	  4.34431E-003	  1.84529E-003	 -4.42331E-003
  6.40000E-003	 -2.21655E-003	  1.09888E-002	 -3.09967E-003	 -5.25380E-003	 -2.50940E-003	 -5.18289E-003	 -2.12688E-003	 -4.82455E-003
  7.20000E-003	 -3.19706E-003	  5.19183E-003	  5.55711E-003	  6.23567E-003	  7.06769E-003	 -1.35399E-002	 -9.29306E-003	  1.04939E-002
  8.00000E-003	  1.85799E-003	 -3.55078E-003	 -5.04744E-003	 -1.74240E-004	  6.94490E-003	  1.04447E-002	  4.27405E-004	  1.09753E-002
  8.80000E-003	 -4.35188E-003	  3.30896E-003	 -3.31609E-003	 -6.58007E-004	  2.29067E-002	 -1.75652E-003	  1.72431E-002	  7.63024E-004
  9.60000E-003	 -2.78307E-003	 -6.59418E-003	  1.25547E-002	  1.89346E-002	  3.14610E-004	  2.83983E-003	  1.38374E-002	  4.62278E-003
  1.04000E-002	  1.62605E-002	  5.28958E-003	 -8.43802E-003	  9.14236E-004	  9.03222E-003	  1.27847E-002	  4.18788E-003	 -9.89152E-003
  1.12000E-002	  3.76336E-004	 -9.68590E-003	  1.25547E-002	  3.69590E-003	  2.74497E-002	  3.50839E-003	  1.46179E-002	 -1.64933E-003
  1.20000E-002	  6.45547E-003	 -7.12557E-003	  2.09579E-003	 -1.77108E-002	  2.11878E-002	 -2.67579E-003	 -1.77212E-003	  5.98978E-003
  1.28000E-002	  5.39326E-004	  6.98108E-003	  1.01750E-002	  6.05383E-003	  9.58431E-003	  5.22115E-003	  2.06164E-003	 -3.96055E-003
  1.44000E-002	 -5.63785E-003	 -8.28426E-003	 -1.22307E-003	 -1.00314E-002	 -2.50983E-003	  3.00654E-003	  9.95973E-004	 -3.65901E-003
  1.60000E-002	 -7.89802E-004	 -3.98485E-003	 -3.92832E-003	  7.86796E-003	 -1.34339E-003	 -1.13017E-003	 -3.33212E-003	 -1.00542E-003
  1.76000E-002	 -1.50884E-003	  1.46626E-004	 -2.70194E-003	  1.15569E-003	  6.45334E-003	  2.79762E-003	  2.06026E-003	 -2.93530E-003
  1.92000E-002	  2.88753E-004	 -3.81464E-003	 -1.47556E-003	 -5.91940E-003	 -5.76358E-003	 -1.97416E-006	 -2.19688E-003	  1.36672E-003
  2.08000E-002	 -7.93659E-003	  7.27207E-003	 -3.06264E-003	 -1.97672E-002	  2.52428E-003	  6.01506E-003	 -5.07045E-003	  6.83222E-004
  2.24000E-002	  2.34781E-003	  4.13204E-003	  5.81057E-003	  1.19195E-002	 -4.04462E-003	  2.54691E-003	  5.32407E-003	 -6.95589E-003
  2.40000E-002	 -2.71875E-005	 -4.12864E-003	  7.54455E-005	 -1.17246E-002	 -1.52756E-003	 -2.17479E-003	  6.03359E-003	  2.85434E-003
  2.56000E-002	 -3.88241E-003	  7.33503E-003	 -7.69848E-003	  1.66884E-003	 -5.48457E-003	 -4.02913E-003	 -4.69470E-003	  5.09704E-003
  2.88000E-002	  7.53203E-004	  1.75543E-003	  8.86165E-004	  5.89225E-006	 -7.26710E-004	  7.52448E-003	 -3.32487E-004	  4.61457E-003
  3.20000E-002	 -9.19104E-004	  9.81359E-004	 -3.35205E-003	  4.81332E-003	 -2.33767E-004	 -7.78979E-003	 -1.37367E-004	  2.16201E-003
  3.52000E-002	  3.21536E-003	 -4.33254E-003	  1.28293E-003	  1.94276E-003	 -5.39068E-003	 -8.93889E-003	 -7.04987E-004	  4.53256E-004
  3.84000E-002	  1.45045E-003	  3.39677E-003	  1.69774E-003	  6.47808E-003	 -3.21127E-003	 -1.10908E-002	 -3.25928E-003	  2.75504E-003
  4.16000E-002	  3.27528E-003	  3.26392E-003	 -2.10764E-003	 -5.10210E-003	 -2.90431E-003	 -2.43980E-003	  1.13840E-003	 -1.65755E-003
  4.48000E-002	 -1.45838E-003	 -1.20459E-003	 -5.92702E-004	  1.04087E-002	  2.65165E-003	  5.52029E-003	 -2.78172E-003	 -2.04956E-003
  4.80000E-002	  1.58119E-003	 -3.74076E-003	  5.14242E-003	 -5.07008E-003	 -1.36952E-003	  7.56777E-003	 -2.46243E-003	  2.50272E-003
  5.12000E-002	  3.35108E-004	 -2.99029E-003	  4.95273E-003	  2.49069E-003	 -2.77899E-004	  1.11771E-003	 -2.94508E-003	 -1.54145E-003
  5.76000E-002	  3.32384E-004	  3.62794E-003	  2.47292E-003	 -1.72718E-003	 -1.45969E-003	  3.06969E-003	  9.20473E-004	  1.58291E-004
  6.40000E-002	 -2.30485E-003	  1.75599E-003	  2.78853E-003	  4.60718E-003	 -1.96618E-003	 -1.36106E-003	 -1.79347E-003	 -3.19157E-004
  7.04000E-002	 -1.13855E-004	  3.45772E-003	  4.92567E-003	 -3.08778E-003	  1.68483E-003	 -5.25354E-004	 -1.11055E-003	 -3.56078E-003
  7.68000E-002	  9.64700E-004	  6.41056E-003	  3.23039E-003	  1.73480E-003	  7.56492E-003	  9.55038E-004	  2.53465E-003	 -2.64210E-003
  8.32000E-002	 -7.30005E-005	 -3.14352E-003	  2.98692E-003	  2.94422E-003	  3.40562E-003	  2.08324E-003	 -8.01504E-004	 -2.12843E-003
  8.96000E-002	 -1.82898E-003	 -1.13269E-003	 -1.17916E-003	  1.85574E-003	  4.86368E-003	 -5.78283E-003	  7.16484E-004	 -1.60575E-003
  9.60000E-002	  2.00861E-003	 -8.79077E-004	 -2.70311E-003	 -9.42035E-003	 -5.94131E-003	 -2.84742E-003	  4.13559E-004	 -1.07302E-003
  1.02400E-001	  6.27056E-005	  1.69732E-004	  1.26533E-003	 -2.83626E-004	 -1.93280E-004	  2.19848E-003	 -1.29777E-003	  6.24059E-004
  1.15200E-001	 -1.79405E-003	 -1.44271E-004	 -3.55903E-003	 -1.43259E-003	 -1.03742E-003	  2.27161E-003	  4.98223E-004	  2.35588E-003
  1.28000E-001	 -2.00562E-004	  2.48249E-003	 -2.50398E-003	 -1.41926E-003	  2.75172E-003	  3.65425E-003	  7.01909E-004	 -7.05372E-005
  1.40800E-001	  2.07112E-003	 -1.25536E-003	  4.31210E-004	 -1.30011E-003	 -8.76535E-005	 -1.42268E-003	 -3.97520E-003	 -1.25766E-003
  1.53600E-001	  8.51093E-004	  6.28660E-004	 -1.33770E-004	  1.33795E-003	 -2.34380E-003	 -1.61483E-005	  1.16005E-003	  2.63525E-003
  1.66400E-001	 -3.07711E-005	  7.09044E-004	  7.24278E-004	 -3.09158E-003	 -5.12946E-003	 -2.02334E-003	  2.96936E-003	  5.86806E-004
  1.79200E-001	  9.02683E-005	 -1.67676E-004	 -1.60674E-003	  2.31305E-003	  3.40279E-004	 -7.28592E-005	  1.88874E-004	  1.83970E-003
  1.92000E-001	  1.37991E-003	 -2.71465E-004	  3.07923E-003	 -1.64026E-003	  2.17436E-003	  1.55154E-003	  1.01233E-003	 -2.13330E-004
  2.04800E-001	 -2.10885E-004	 -1.02742E-003	  4.72593E-004	 -1.54760E-003	  8.95027E-004	  1.26343E-003	  1.09741E-003	  3.20572E-004
  2.30400E-001	 -3.52898E-005	 -1.48231E-005	 -6.52349E-004	 -1.79884E-003	 -1.25369E-003	 -3.86837E-003	  3.10263E-004	  1.87392E-006
  2.56000E-001	  7.81131E-004	  5.87523E-004	  4.16233E-004	 -5.83833E-004	 -3.13626E-004	 -9.16181E-005	  5.35588E-004	 -6.45422E-004
  2.81600E-001	 -5.95167E-004	  1.75561E-003	 -8.64262E-004	  2.92821E-004	 -1.36496E-003	  1.95066E-003	 -1.14514E-003	 -4.53405E-004
  3.07200E-001	 -9.57334E-004	 -1.01760E-003	  6.64216E-004	  3.93071E-004	 -2.14082E-004	  5.95236E-004	  3.39370E-003	 -6.51599E-005
  3.32800E-001	 -1.36588E-003	 -1.82007E-004	 -4.70611E-004	  8.07017E-004	  3.42158E-003	 -5.31861E-004	  2.29751E-003	  4.55234E-004
  3.58400E-001	  1.02502E-005	  1.05137E-003	 -1.55272E-003	 -1.27746E-003	  6.11516E-003	 -2.89910E-003	  8.32707E-004	  8.65498E-004
  3.84000E-001	 -1.22926E-003	 -1.23892E-004	 -1.11311E-003	 -1.37573E-003	 -1.25007E-003	  5.38522E-004	 -3.26626E-003	 -1.43883E-003
  4.09600E-001	 -9.47164E-005	 -6.39072E-004	  1.80431E-004	 -1.12208E-003	 -1.06607E-003	 -3.16807E-004	 -3.08926E-004	 -1.05914E-003
  4.60800E-001	  3.14264E-004	  9.99278E-004	  1.62837E-003	  5.42517E-004	 -8.55035E-004	  2.77409E-003	  1.53802E-005	  5.53728E-004
  5.12000E-001	  2.82355E-004	  3.61823E-004	 -1.48366E-004	  7.61822E-004	 -2.25365E-003	 -1.71125E-003	  2.39928E-003	 -1.18672E-004
  5.63200E-001	  9.53657E-004	 -3.14127E-004	  2.14593E-004	 -2.62115E-003	  9.15774E-004	  3.85664E-005	  3.26075E-004	 -6.77844E-005
  6.14400E-001	  3.78965E-004	 -2.61257E-003	 -2.95162E-004	  5.19654E-004	  1.80975E-004	 -3.14008E-004	 -1.00211E-003	  4.38541E-004
  6.65600E-001	  5.34002E-005	 -8.32317E-004	  9.90109E-004	  1.73874E-003	  1.32442E-003	  1.64586E-003	  1.96025E-003	  1.18768E-004
  7.16800E-001	  2.28725E-004	 -1.54858E-004	 -5.16094E-004	  1.96689E-004	  5.93352E-004	 -5.11375E-004	 -4.36689E-004	  6.86474E-004
  7.68000E-001	  7.83589E-004	 -7.06924E-005	 -2.27270E-004	  2.09968E-003	 -1.22263E-004	  6.71518E-004	  6.38943E-005	 -1.16159E-004
  8.19200E-001	  2.84024E-004	 -3.33379E-004	  4.87552E-004	  5.50851E-004	  6.24077E-004	 -4.76744E-004	  4.53620E-004	 -4.93704E-006
  9.21600E-001	  1.55139E-004	 -7.70444E-004	  8.25114E-004	 -3.55304E-004	  5.37104E-004	 -2.05313E-004	 -2.98607E-004	 -8.51268E-004
  1.02400E+000	  6.04923E-004	 -1.13767E-003	  1.22445E-003	 -2.06387E-003	 -7.36386E-005	 -1.12506E-004	  6.27859E-005	  7.34862E-004
  1.12640E+000	 -1.97736E-004	  1.71244E-004	  1.18040E-004	 -2.28119E-004	 -4.24628E-004	  3.25882E-004	  1.72853E-004	  7.44600E-004
  1.22880E+000	 -2.97073E-004	 -1.05409E-004	 -7.72300E-005	  4.37093E-004	 -5.19159E-004	 -1.41742E-003	 -8.50491E-004	  8.98114E-004
  1.33120E+000	  2.16122E-005	 -1.24660E-004	  8.58710E-004	 -1.19098E-003	  1.84951E-004	 -5.95856E-004	 -1.03518E-004	 -8.07105E-005
  1.43360E+000	  4.31123E-004	  1.35257E-003	 -1.40301E-003	 -9.44356E-004	  1.46689E-004	 -1.19179E-003	 -1.47579E-004	 -5.77255E-004
  1.53600E+000	 -2.66245E-004	 -2.89217E-004	  1.91135E-004	  8.85922E-004	 -1.25504E-003	 -4.12012E-004	  2.41019E-004	  5.50185E-005
  1.63840E+000	 -5.32712E-004	  2.72803E-004	 -5.43754E-004	  7.83474E-004	 -6.36524E-004	  2.42128E-005	  2.65375E-004	 -2.66319E-004
  1.84320E+000	  1.57066E-004	  1.67666E-004	  1.24138E-004	  2.44252E-004	 -4.24065E-005	 -2.14692E-004	 -1.02720E-003	 -1.08198E-004
  2.04800E+000	  8.72640E-005	 -6.03110E-004	 -9.98514E-005	  8.72805E-005	 -6.37743E-004	 -1.81760E-004	 -2.16943E-004	  3.55235E-004
  2.25280E+000	 -2.30475E-005	  1.89172E-004	 -1.07481E-003	 -1.01151E-004	  2.72332E-004	 -1.46272E-003	  5.07109E-004	 -9.15814E-005
  2.45760E+000	  5.82807E-004	  7.07995E-004	  6.07090E-004	 -5.48142E-004	  6.24687E-004	 -8.28419E-004	  7.47134E-004	 -7.15088E-005
  2.66240E+000	  1.72552E-004	 -6.52356E-005	  8.27441E-004	  1.42669E-004	 -9.63969E-004	  8.19527E-004	 -1.74305E-004	  2.20169E-005
  2.86720E+000	 -2.62933E-005	  9.05798E-004	  4.49785E-004	  8.72042E-004	  5.05842E-004	  1.12372E-003	  1.51424E-004	 -9.33491E-005
  3.07200E+000	  4.62017E-004	  7.21406E-004	  9.55650E-005	 -1.03221E-004	 -4.23871E-005	  1.02579E-004	  3.12520E-004	 -1.14585E-004
  3.27680E+000	 -7.44166E-005	  1.00404E-004	  4.29237E-004	  2.60156E-004	 -7.51797E-005	 -4.05076E-004	  7.51857E-005	 -2.12221E-004
  3.68640E+000	  1.59875E-004	 -1.48486E-004	 -1.71809E-004	 -3.94384E-004	 -1.10048E-004	 -1.36202E-004	 -3.32901E-004	 -2.04920E-005
  4.09600E+000	 -1.40339E-004	 -1.44236E-004	  2.23438E-004	  1.00521E-003	 -2.92550E-005	  3.61732E-004	  2.54172E-004	  2.56085E-004
  4.50560E+000	  4.47822E-005	 -7.08177E-004	  6.01337E-004	  7.01609E-004	 -1.87659E-004	  1.35190E-004	  1.16675E-004	 -4.18680E-006
  4.91520E+000	 -3.34024E-004	 -2.73177E-004	 -5.12249E-004	 -9.58055E-004	 -9.73792E-005	  3.00804E-004	  8.77499E-006	  2.08120E-004
  5.32480E+000	 -5.82577E-004	  2.81122E-004	 -4.25246E-004	  5.64339E-004	 -2.31687E-004	  2.28365E-005	  1.62459E-004	 -4.38145E-004
  5.73440E+000	  4.95713E-005	 -3.32932E-005	 -5.33992E-004	 -1.21028E-004	  8.42787E-006	 -4.36936E-004	 -6.39879E-004	 -3.70585E-004
  6.14400E+000	  1.13995E-004	 -8.29312E-005	 -3.84937E-004	  6.61228E-005	  8.09053E-004	  4.72801E-005	  3.96149E-004	 -2.93197E-004
  6.55360E+000	 -1.56585E-004	 -3.10307E-004	 -3.80937E-004	 -1.34776E-004	  5.20495E-005	  2.69192E-004	  3.06851E-004	  2.67496E-005
  7.37280E+000	  2.30728E-005	  2.02097E-004	  2.17998E-005	  7.83511E-005	  2.58803E-004	  3.67727E-004	  2.21264E-004	  2.32221E-004
  8.19200E+000	  4.78386E-005	 -1.42790E-004	  1.00909E-004	 -1.04591E-004	 -5.25595E-005	  4.85250E-004	 -1.48368E-004	  8.70258E-005
  9.01120E+000	  1.26840E-004	  5.22797E-005	 -3.00074E-004	 -2.28295E-004	  5.83241E-004	  1.61053E-004	 -6.83553E-005	 -1.77572E-004
  9.83040E+000	 -1.06405E-004	  1.93118E-004	 -1.46350E-005	  8.15869E-004	  3.66067E-004	 -4.33591E-004	 -2.94506E-004	  2.13407E-004
  1.06496E+001	  5.09614E-005	 -3.13900E-004	 -5.01220E-005	 -6.16858E-004	  5.39004E-005	 -6.32930E-005	 -2.09526E-004	 -2.99807E-004
  1.14688E+001	 -1.24733E-004	  1.44318E-004	  3.21948E-005	  2.71539E-004	 -9.32381E-005	 -6.74099E-005	 -2.56159E-004	 -1.15675E-004
  1.22880E+001	  8.22789E-005	  2.97360E-004	 -6.72918E-006	  1.72528E-004	  6.88128E-004	  1.17063E-005	 -1.28842E-005	  2.22456E-004
  1.31072E+001	 -1.16201E-004	 -6.43138E-006	  7.31726E-006	  3.82374E-006	  1.26805E-004	  6.81871E-005	  1.10069E-004	  2.31083E-004
  1.47456E+001	  4.71949E-005	 -2.04929E-005	 -4.35883E-004	  6.51521E-005	 -5.11234E-004	  1.08749E-005	 -3.57105E-005	  3.29455E-005
  1.63840E+001	  5.66584E-005	 -2.99829E-004	  1.56019E-004	  8.26262E-005	 -2.67267E-004	  5.56187E-004	 -2.01065E-004	  1.25388E-004
  1.80224E+001	 -1.47431E-004	 -1.69442E-004	 -2.71768E-004	 -3.15444E-004	 -7.63846E-005	 -4.16241E-007	  2.09060E-004	  4.54251E-005
  1.96608E+001	 -5.47450E-005	  9.91139E-005	 -3.88828E-004	  1.55122E-005	 -5.09384E-005	  1.72558E-004	 -1.41960E-004	 -1.20194E-004
  2.12992E+001	 -4.53573E-005	  9.78950E-006	  1.22153E-004	  6.61385E-005	  2.29013E-004	 -5.44501E-004	  5.62019E-006	  8.56753E-005
  2.29376E+001	 -5.84148E-005	  6.36749E-005	 -1.14383E-004	  1.15317E-005	  4.48755E-004	 -9.81613E-005	 -1.68615E-004	  1.93603E-005
  2.45760E+001	 -1.42017E-004	 -9.15138E-005	  6.53017E-006	 -8.09796E-005	 -6.10457E-005	 -1.78002E-004	  2.79564E-004	  4.60097E-005
  2.62144E+001	  4.41705E-005	  2.40749E-004	  3.40688E-005	  2.09560E-004	  2.48622E-004	 -8.48065E-005	 -6.40221E-005	  1.09073E-004
  2.94912E+001	 -7.71826E-006	  8.77750E-005	  2.68008E-004	  1.98508E-004	  1.31242E-004	  2.53564E-004	 -7.99842E-005	 -1.16622E-004
  3.27680E+001	  2.11550E-005	 -8.90590E-005	  4.77498E-005	 -3.91353E-004	 -6.78788E-005	 -7.69635E-005	 -1.55813E-004	 -1.34125E-004
  3.60448E+001	  1.36184E-004	  9.95020E-006	 -7.78954E-005	  2.14146E-004	 -1.76559E-005	 -1.86593E-004	  2.60239E-005	 -9.72094E-005
  3.93216E+001	 -9.22893E-005	 -6.28859E-005	  1.65925E-004	  1.76016E-004	  6.62947E-005	 -5.42046E-005	 -9.71391E-005	  4.90290E-005
  4.25984E+001	 -2.75795E-005	 -2.46112E-005	  3.87329E-005	  1.01384E-004	 -5.50009E-005	  5.75542E-007	  6.13217E-005	  1.02061E-004
  4.58752E+001	  9.58615E-005	  1.06674E-004	 -2.57994E-005	  5.57615E-004	  3.23026E-005	  2.42594E-005	  2.42303E-004	 -1.13391E-004
