ALV-7004 CGS-8F Data, Single Run Data
Date :	"11.05.2021"
Time :	"09:21:57"
Samplename : 	"092 2021 Toluol"
SampMemo(0) : 	"Toluol-Messung "
SampMemo(1) : 	""
SampMemo(2) : 	""
SampMemo(3) : 	""
SampMemo(4) : 	""
SampMemo(5) : 	""
SampMemo(6) : 	""
SampMemo(7) : 	""
SampMemo(8) : 	""
SampMemo(9) : 	""
Temperature [K] :	     292.95108
Viscosity [cp]  :	       1.00665
Refractive Index:	       1.33200
Wavelength [nm] :	     632.80000
Angle(1)[°]     :	      26.00000
Angle(2)[°]     :	      42.00000
Angle(3)[°]     :	      58.00000
Angle(4)[°]     :	      74.00000
Angle(5)[°]     :	      90.00000
Angle(6)[°]     :	     106.00000
Angle(7)[°]     :	     122.00000
Angle(8)[°]     :	     138.00000
Duration [s]    :	          30.0
Runs            :	         1
Mode            :	"8 x AUTO, 100 ns STC"
MeanCR1 [kHz]   :	      32.30945
MeanCR2 [kHz]   :	      24.36891
MeanCR3 [kHz]   :	      22.31208
MeanCR4 [kHz]   :	      18.51959
MeanCR5 [kHz]   :	      18.62893
MeanCR6 [kHz]   :	      24.07384
MeanCR7 [kHz]   :	      29.49318
MeanCR8 [kHz]   :	      43.91340
Atten[1]        :	       1.00000
Atten[2]        :	       1.00000
Atten[3]        :	       1.00000
RelSens[1]      :	       1.00000
RelSens[2]      :	       1.00000
RelSens[3]      :	       1.00000
RelSens[4]      :	       1.00000
RelSens[5]      :	       1.00000
RelSens[6]      :	       1.00000
RelSens[7]      :	       1.00000
RelSens[8]      :	       1.00000
DC[1][kHz]      :	       0.00000
DC[2][kHz]      :	       0.00000
DC[3][kHz]      :	       0.00000
DC[4][kHz]      :	       0.00000
DC[5][kHz]      :	       0.00000
DC[6][kHz]      :	       0.00000
DC[7][kHz]      :	       0.00000
DC[8][kHz]      :	       0.00000

"Correlation"
  1.00000E-004	 -1.20064E-001	  1.20808E-001	 -9.19305E-002	 -7.09659E-004	  3.25139E-002	  2.59082E-001	  2.56812E-001	 -7.09396E-002
  2.00000E-004	  4.54183E-002	  9.85737E-002	  6.19796E-002	  7.83207E-002	  1.09320E-001	  8.67727E-002	  1.25137E-001	  5.29990E-002
  3.00000E-004	 -7.45138E-003	  5.09429E-002	  3.11975E-002	  3.96463E-002	  6.38685E-002	  2.66569E-002	  7.31965E-002	  3.08785E-002
  4.00000E-004	 -1.46275E-002	  6.56059E-002	 -1.28179E-002	  1.94683E-002	  5.19586E-002	  2.09635E-002	  7.20734E-002	  3.62289E-002
  5.00000E-004	  9.35127E-004	  5.17096E-002	  4.45748E-002	  5.59808E-002	  4.61252E-002	  2.71593E-002	  6.57564E-002	  1.33897E-002
  6.00000E-004	  3.87473E-003	  4.28927E-002	 -2.30306E-002	  2.23509E-002	  3.15417E-002	  3.21829E-002	  2.16774E-002	  1.69034E-002
  7.00000E-004	  8.02476E-003	  6.09145E-003	  2.67384E-002	 -3.59224E-003	  1.84165E-002	 -2.98233E-003	  3.37500E-002	  9.39683E-003
  8.00000E-004	  4.65283E-003	  3.12006E-002	  1.13469E-003	  1.85074E-002	 -1.99868E-002	 -4.65689E-003	  4.21727E-002	  1.16328E-002
  9.00000E-004	  2.14259E-002	  4.74972E-003	  7.46370E-003	 -1.51225E-002	  1.11265E-002	  2.68244E-002	 -8.36371E-003	  1.22717E-002
  1.00000E-003	  2.88613E-002	  1.43334E-002	  8.03906E-003	  4.92548E-002	 -3.16519E-002	  1.37144E-003	  2.42042E-002	 -1.86077E-004
  1.10000E-003	  1.91779E-002	  1.20333E-002	  1.13469E-003	  4.92548E-002	  2.37656E-002	  1.74470E-002	 -2.07170E-002	  2.82431E-002
  1.20000E-003	  1.13966E-002	 -1.21175E-002	 -2.99350E-002	  2.13900E-002	 -8.31823E-003	 -1.60437E-002	  1.07278E-002	 -1.26438E-002
  1.30000E-003	 -6.41391E-003	 -2.70680E-002	  4.65885E-002	 -7.43570E-003	 -2.29018E-002	  2.07960E-002	  5.56491E-002	 -2.28656E-002
  1.40000E-003	  9.32162E-003	  1.29960E-003	 -2.59075E-002	 -3.59227E-003	 -5.40152E-003	  1.81168E-002	  5.45260E-002	 -1.29633E-002
  1.50000E-003	  2.93801E-002	 -1.36509E-002	 -1.44002E-002	  3.48420E-002	  4.32085E-003	  2.81640E-002	 -1.45404E-002	  8.75795E-003
  1.60000E-003	  1.57195E-002	 -7.32461E-003	  4.58682E-003	  5.64612E-002	  1.64756E-002	 -4.65545E-003	 -5.02542E-004	  7.48017E-003
  1.80000E-003	  8.71635E-003	 -4.44951E-003	  2.01217E-002	  1.27422E-002	  2.61980E-002	 -2.54197E-002	  2.92578E-002	  7.00103E-003
  2.00000E-003	 -8.14314E-003	 -8.47465E-003	  2.84645E-002	 -3.57810E-002	  2.86286E-002	  1.04154E-002	 -2.74860E-003	  2.12156E-002
  2.20000E-003	  1.47685E-002	  1.58678E-002	  2.61630E-002	 -4.05853E-002	 -2.48307E-003	  3.55334E-002	 -1.56635E-002	 -7.05386E-003
  2.40000E-003	  2.16860E-002	 -1.38415E-002	 -8.07120E-003	 -8.39660E-003	  1.79339E-002	 -2.37452E-002	  2.02735E-002	 -5.13729E-003
  2.60000E-003	  1.34724E-002	 -2.34111E-003	  6.88828E-003	  7.31527E-004	  3.64065E-002	  2.04269E-003	 -4.99467E-003	  6.12443E-004
  2.80000E-003	  9.06295E-003	 -3.29947E-003	 -1.92908E-002	  9.85966E-003	  3.00869E-002	 -2.10659E-002	  9.01246E-004	  9.71618E-003
  3.00000E-003	 -1.25518E-002	  9.54263E-003	 -1.69894E-002	 -1.70443E-002	  1.55034E-002	  1.37645E-002	 -1.76288E-002	 -1.86130E-004
  3.20000E-003	 -7.49405E-003	 -1.35844E-004	  9.47731E-003	  1.29823E-002	  5.53961E-003	  2.54645E-003	  7.21819E-003	 -1.86237E-004
  3.60000E-003	 -7.07021E-004	  2.16424E-003	  1.27637E-004	  3.61399E-003	 -3.21056E-003	  5.05675E-003	 -1.66462E-002	 -1.22438E-003
  4.00000E-003	 -1.22577E-003	 -5.98188E-003	 -4.90680E-003	 -3.19377E-002	  2.13385E-002	  1.29271E-002	  4.41061E-003	 -4.01939E-003
  4.40000E-003	 -1.09609E-003	  8.39362E-003	 -3.18071E-003	  1.93249E-003	  3.90819E-002	 -1.57075E-002	 -1.76606E-003	 -2.02296E-003
  4.80000E-003	  4.13468E-003	  7.05077E-003	 -1.65579E-002	  1.69228E-003	 -1.07472E-002	  8.23837E-003	 -8.78500E-003	  5.72321E-003
  5.20000E-003	 -4.51122E-003	  4.07984E-003	  6.60049E-003	 -9.59778E-003	  2.01214E-002	 -1.26933E-002	  3.28758E-003	  1.49068E-002
  5.60000E-003	  2.75134E-003	 -6.46219E-003	 -2.31766E-003	  1.00998E-002	 -2.94628E-002	  1.03787E-003	  1.17103E-002	  7.32035E-003
  6.00000E-003	  1.74926E-002	  2.06727E-003	 -1.16673E-002	 -2.18487E-002	 -1.12333E-002	 -2.47866E-003	 -5.83705E-003	  1.31499E-002
  6.40000E-003	  5.19359E-003	  3.02655E-003	  7.24756E-003	 -1.32012E-002	 -1.14476E-003	  1.77845E-002	 -1.65762E-002	  9.15685E-003
  7.20000E-003	 -5.00857E-003	  2.73904E-003	 -3.54053E-003	  9.49902E-003	 -1.38782E-003	  5.05804E-003	  9.95536E-003	  1.19119E-002
  8.00000E-003	 -5.55931E-004	 -1.19026E-003	 -5.91782E-004	  4.09420E-003	  4.35131E-004	  1.03915E-003	  1.81675E-002	  5.92263E-003
  8.80000E-003	 -6.17576E-003	 -6.60503E-003	 -9.58185E-003	 -1.07991E-002	 -5.76290E-003	 -1.34456E-002	 -2.88930E-003	  4.68485E-003
  9.60000E-003	 -1.02021E-004	 -2.01180E-002	  1.42199E-003	  3.25345E-003	  8.94223E-003	  5.64413E-003	  7.35835E-003	  8.15864E-003
  1.04000E-002	 -1.16114E-003	 -1.14234E-003	  3.14809E-003	 -2.29649E-004	 -8.31503E-003	  7.31716E-003	  7.21797E-003	 -1.30445E-003
  1.12000E-002	 -5.87918E-005	 -3.29979E-003	  4.44266E-003	  1.98282E-002	  1.23433E-002	  1.54001E-003	  5.74399E-003	 -1.06488E-003
  1.20000E-002	 -3.21454E-003	  2.54624E-003	  6.81604E-003	  1.04599E-002	  2.01322E-003	 -4.06968E-003	 -1.15226E-002	 -2.78181E-003
  1.28000E-002	 -4.35979E-003	  8.27318E-003	  8.21806E-003	 -6.50449E-004	  1.02179E-002	  1.48118E-002	 -5.03289E-004	 -1.28491E-003
  1.44000E-002	  4.05915E-003	  1.87609E-003	 -6.16605E-003	 -1.26011E-002	  9.97481E-003	 -8.84105E-003	 -1.41575E-003	  5.46303E-003
  1.60000E-002	  2.66522E-004	 -1.47820E-003	  7.13925E-003	  8.05730E-003	  2.52409E-004	  4.76457E-003	 -2.57388E-003	 -3.62074E-003
  1.76000E-002	  8.60928E-004	  2.37923E-003	 -6.34585E-003	  3.01281E-003	 -3.39349E-003	  4.01103E-003	  7.91944E-003	 -4.71269E-005
  1.92000E-002	  5.78909E-003	 -1.84402E-004	  4.26243E-003	 -8.03702E-003	  1.46771E-003	  5.35066E-003	 -5.83768E-003	  8.11339E-004
  2.08000E-002	  4.58947E-003	 -4.64081E-003	 -5.41088E-003	 -3.71318E-003	 -1.13537E-002	  7.58615E-005	 -6.08334E-003	  5.44306E-003
  2.24000E-002	 -3.61333E-003	  4.51159E-003	 -4.90744E-003	  5.05463E-003	  1.50183E-002	 -2.72899E-003	 -1.59122E-003	  9.91018E-004
  2.40000E-002	  1.32565E-003	 -2.94083E-003	 -2.89367E-003	 -6.35553E-003	 -6.67659E-003	  1.45736E-003	 -1.69651E-003	 -3.10167E-003
  2.56000E-002	  6.95696E-003	 -3.97940E-003	  8.84650E-003	  7.60604E-003	  5.26466E-003	  5.24664E-003	 -8.13723E-003	 -2.08434E-003
  2.88000E-002	  2.31595E-003	  2.92085E-003	  4.35147E-003	  7.63607E-003	 -5.67303E-003	 -5.47041E-003	  5.77780E-003	 -1.50434E-003
  3.20000E-002	  8.46902E-004	 -8.60276E-005	 -4.09919E-003	  1.09025E-003	 -3.02975E-003	 -4.82152E-003	  4.58458E-003	 -2.19311E-003
  3.52000E-002	  3.68925E-003	 -2.58977E-003	  7.71375E-003	 -3.20357E-003	 -2.34564E-004	 -1.84922E-003	  1.91739E-003	  3.48674E-003
  3.84000E-002	  4.67883E-004	  2.08228E-003	  2.34024E-004	  4.60337E-003	  4.33850E-004	  1.83477E-003	 -1.03056E-003	 -1.00524E-003
  4.16000E-002	 -4.18323E-004	  3.81177E-004	  3.16478E-003	  5.80444E-003	 -7.81449E-004	  3.76049E-003	  9.04299E-003	  9.28017E-005
  4.48000E-002	  1.51620E-003	 -7.01024E-003	 -2.98442E-003	 -1.70875E-004	  3.47210E-003	 -1.07474E-003	  8.49902E-003	 -1.76717E-004
  4.80000E-002	  3.39128E-003	  1.32757E-003	 -5.05213E-003	 -3.14352E-003	 -2.33095E-003	 -7.18904E-004	  1.12913E-003	  1.90956E-003
  5.12000E-002	  1.06092E-003	  1.52918E-003	 -3.29040E-003	  2.15807E-003	  2.80558E-003	  2.13209E-003	 -1.53100E-003	 -3.12403E-003
  5.76000E-002	 -1.17005E-003	  2.58339E-003	  3.17345E-003	  2.48837E-003	 -4.31912E-003	  3.18915E-003	 -1.67138E-003	  5.39576E-003
  6.40000E-002	  1.77691E-003	 -3.78006E-003	  2.93971E-003	 -2.14043E-004	 -1.52393E-003	 -2.19033E-003	  7.25144E-003	 -8.53085E-004
  7.04000E-002	  6.18576E-004	  4.13848E-003	  6.92194E-004	  3.85458E-003	 -2.38803E-003	  5.79516E-003	  3.18046E-003	 -2.19216E-004
  7.68000E-002	 -2.89248E-004	 -9.77955E-004	  2.23987E-003	  2.30820E-003	  2.86815E-003	 -6.30343E-003	  1.14634E-003	 -5.84690E-005
  8.32000E-002	  1.29674E-003	 -1.63341E-004	 -2.10233E-003	 -1.23495E-003	  2.44460E-003	  8.55251E-004	 -4.41697E-004	  1.95294E-003
  8.96000E-002	  5.67240E-004	 -6.60495E-004	 -2.30910E-003	  4.62026E-003	  3.33008E-004	 -3.52997E-003	  1.18143E-003	 -4.37973E-003
  9.60000E-002	  9.91432E-004	  1.29331E-003	 -1.82364E-003	  5.22080E-003	  2.08001E-003	  5.56491E-003	 -2.36313E-003	 -2.10379E-003
  1.02400E-001	 -1.11727E-004	 -1.87905E-003	  5.50091E-003	 -2.63854E-003	 -3.14632E-004	 -1.53067E-003	  1.05979E-004	  9.41069E-004
  1.15200E-001	 -6.08869E-004	 -2.80899E-004	  2.87167E-005	 -3.33985E-004	  7.39368E-004	  1.28842E-003	 -2.88886E-003	  4.28447E-004
  1.28000E-001	 -8.35825E-004	 -1.21944E-003	  2.33329E-003	 -3.06642E-003	 -1.69305E-003	  3.62404E-005	 -1.36828E-003	 -5.99722E-004
  1.40800E-001	 -2.86588E-004	 -1.75739E-003	  6.24140E-006	 -9.87067E-004	 -4.98729E-004	  3.13588E-004	  1.65864E-003	  6.74411E-007
  1.53600E-001	  7.15803E-004	 -1.27521E-003	  1.94500E-003	  8.76051E-003	  2.20714E-003	 -2.05844E-003	 -3.37374E-004	 -2.98792E-004
  1.66400E-001	 -8.93915E-004	 -3.40063E-004	  1.56431E-003	 -2.02656E-003	  3.52879E-003	  1.41625E-003	 -1.04804E-003	  3.42565E-004
  1.79200E-001	 -1.69907E-003	  4.82404E-004	 -4.31974E-003	  2.86028E-003	  4.37342E-004	 -7.43472E-004	 -3.85630E-004	  8.79109E-004
  1.92000E-001	  1.16836E-003	 -2.18905E-003	 -1.15971E-003	  9.31063E-004	 -6.03269E-004	 -1.98892E-003	  1.34718E-003	  1.11120E-003
  2.04800E-001	  4.00861E-005	 -2.78317E-004	 -1.62917E-003	  1.37053E-003	 -1.01766E-003	 -1.72851E-003	 -4.20995E-004	  3.66022E-004
  2.30400E-001	 -2.38207E-004	  2.72380E-004	  3.37957E-004	  4.32200E-004	 -2.00312E-003	 -5.16698E-004	  8.04311E-004	 -9.21290E-005
  2.56000E-001	  1.72352E-003	  2.25914E-003	  2.84016E-004	  6.68660E-004	  3.81963E-004	 -1.08074E-003	  8.64358E-004	 -2.07897E-005
  2.81600E-001	 -6.52611E-004	 -1.92663E-003	 -1.41877E-003	  2.68045E-003	  2.49179E-003	  1.88899E-003	  7.24802E-004	 -1.06286E-004
  3.07200E-001	  7.72547E-004	  1.97276E-003	 -1.33474E-003	  1.62951E-003	  3.21197E-004	 -1.38313E-003	  4.00174E-004	 -1.13446E-003
  3.32800E-001	 -1.05722E-003	  5.50542E-004	  1.03867E-003	  1.31423E-003	 -2.71312E-003	 -1.38873E-003	  1.03983E-003	 -8.56205E-004
  3.58400E-001	 -1.20033E-003	 -2.17221E-003	  1.98852E-003	  2.26203E-003	 -9.87080E-004	  2.01756E-003	 -6.28004E-004	 -7.69891E-004
  3.84000E-001	 -4.33083E-004	  3.59599E-004	  7.42518E-004	  3.10303E-004	 -9.07770E-005	 -3.19971E-003	 -8.46807E-004	  5.43595E-004
  4.09600E-001	 -2.85582E-004	 -3.37119E-004	 -1.54893E-003	  4.08036E-004	 -1.30897E-003	  2.34219E-004	 -8.92318E-004	 -8.10330E-004
  4.60800E-001	 -1.46263E-004	 -7.58263E-004	 -7.93139E-004	 -3.74542E-004	  1.86427E-003	  2.57899E-003	  8.69583E-004	  4.81759E-004
  5.12000E-001	  4.06363E-004	  1.59842E-003	 -8.97652E-004	  2.85523E-003	  1.33264E-003	  3.86350E-004	  5.65789E-004	 -1.45191E-003
  5.63200E-001	 -9.78821E-005	  5.27354E-004	 -8.99900E-004	 -7.66857E-004	  1.18121E-003	 -2.50247E-003	 -6.37877E-004	  7.52100E-004
  6.14400E-001	  7.78890E-004	 -7.29416E-004	 -9.30762E-004	  2.27788E-004	 -5.39375E-004	 -5.01959E-004	  7.56893E-004	  2.46532E-003
  6.65600E-001	 -8.91571E-004	  1.59355E-004	  1.04063E-003	  6.35029E-004	  1.73941E-003	  1.41091E-003	  1.84944E-004	 -1.31010E-003
  7.16800E-001	  1.28993E-004	 -1.06110E-003	 -5.72534E-004	  1.36694E-003	 -4.55918E-004	 -3.50015E-004	  2.61558E-003	 -1.25791E-003
  7.68000E-001	  8.27227E-005	  1.98274E-004	  1.31907E-003	  1.41556E-003	  1.74141E-003	  2.24874E-004	  1.18242E-003	  3.92520E-004
  8.19200E-001	 -5.19489E-004	 -1.26002E-004	 -6.89652E-004	  6.99988E-004	  1.23585E-003	 -3.59427E-004	  7.35526E-004	  1.34540E-003
  9.21600E-001	  2.62912E-004	 -4.24762E-004	 -6.03148E-005	 -7.46036E-004	 -6.02440E-004	 -3.02017E-005	  5.96557E-005	  4.75013E-004
  1.02400E+000	 -5.90412E-004	  7.21953E-004	  1.76626E-004	  5.04126E-004	 -1.01054E-003	 -4.15967E-004	 -4.01801E-004	  2.32972E-005
  1.12640E+000	  2.51262E-004	  4.24324E-004	  1.28331E-003	 -9.85992E-004	  1.70510E-003	 -1.09526E-003	 -3.76033E-004	 -1.48808E-004
  1.22880E+000	 -1.65859E-004	  5.71104E-004	  1.61832E-004	 -5.63642E-004	  9.29099E-005	  1.88254E-003	  6.26947E-004	  6.98666E-004
  1.33120E+000	 -4.61052E-004	 -4.49789E-004	  1.17332E-003	  3.46482E-004	 -4.52967E-004	  7.66117E-005	  6.37097E-004	  6.65092E-004
  1.43360E+000	  1.96507E-005	 -6.00596E-005	  8.14834E-004	  9.96060E-005	  1.49099E-003	 -1.03788E-003	 -1.72856E-004	 -5.40532E-004
  1.53600E+000	  2.75040E-005	 -8.60477E-004	 -2.78016E-004	 -1.23014E-003	 -3.60665E-004	 -7.20617E-004	  1.00533E-003	  5.37243E-004
  1.63840E+000	  9.92860E-005	 -2.37691E-004	  1.81768E-004	 -2.55711E-004	  3.90516E-004	  2.60243E-004	  9.85450E-004	  1.94441E-004
  1.84320E+000	  1.69505E-005	 -7.61480E-004	 -1.47817E-004	  5.66853E-004	  6.82051E-004	 -9.33669E-004	  3.65178E-004	  4.10598E-004
  2.04800E+000	  4.55652E-004	  2.31485E-004	 -5.83310E-004	  1.17070E-004	 -3.94925E-004	 -7.08975E-004	 -4.88993E-004	  3.49862E-004
  2.25280E+000	 -3.03016E-004	 -6.69298E-005	  4.43657E-004	 -3.13601E-004	  3.85474E-004	 -7.16541E-004	  5.13521E-004	 -6.61506E-004
  2.45760E+000	 -7.53618E-006	  2.73443E-004	  2.13498E-005	  1.18267E-004	  8.11578E-004	  9.07175E-004	  1.69107E-004	 -3.32370E-004
  2.66240E+000	 -3.48027E-004	 -1.06603E-004	  6.14228E-004	 -1.71673E-005	  4.11603E-004	  2.61366E-004	  6.06485E-004	 -5.62960E-004
  2.86720E+000	  3.47728E-004	 -8.22489E-004	  6.27415E-004	  1.79440E-004	  5.55483E-004	  1.29214E-004	  3.14438E-004	  2.02970E-004
  3.07200E+000	  1.93865E-004	  3.88647E-005	 -1.38767E-004	 -1.72274E-004	 -5.15003E-005	 -1.11540E-004	  1.86106E-004	  4.00814E-004
  3.27680E+000	  3.80763E-004	  1.14680E-004	 -2.18063E-005	 -6.05841E-005	 -8.66724E-004	  3.04552E-004	  3.41797E-004	  2.37077E-004
  3.68640E+000	 -2.51258E-004	 -5.27114E-004	 -5.88626E-004	  1.38504E-004	 -6.60725E-004	 -3.26804E-004	  1.25128E-004	  2.02320E-004
  4.09600E+000	 -1.44829E-004	  6.01953E-004	 -9.12014E-005	 -6.79875E-004	  5.86266E-004	  7.39632E-005	 -7.57701E-004	  4.09223E-004
  4.50560E+000	 -2.90771E-005	  1.91478E-004	 -4.37833E-004	 -4.52018E-004	 -7.13351E-005	 -1.01961E-004	  5.45565E-004	 -2.06594E-005
  4.91520E+000	 -3.96688E-004	  1.94957E-004	 -4.73383E-004	 -8.06416E-004	  1.73425E-004	 -2.28530E-005	  5.60108E-004	 -1.48683E-005
  5.32480E+000	 -9.23305E-005	  2.11122E-004	  7.65008E-004	 -3.73815E-004	 -7.68874E-004	 -9.37796E-004	 -3.40707E-005	 -2.30621E-004
  5.73440E+000	  1.77095E-004	 -9.62773E-005	  3.80178E-004	  7.27054E-004	  1.83635E-004	 -4.53021E-004	  4.14888E-004	  4.90169E-004
  6.14400E+000	  8.24607E-005	  5.22445E-004	 -8.13518E-004	  4.42790E-004	 -4.83610E-004	 -4.48680E-004	 -9.18015E-005	  3.08018E-004
  6.55360E+000	  1.57465E-005	  2.39037E-004	  7.54025E-005	  3.95191E-004	 -1.24487E-004	 -3.90861E-005	  5.96823E-005	 -1.05453E-004
  7.37280E+000	 -3.42059E-005	  5.59718E-005	 -1.98988E-004	  6.01953E-004	  1.35746E-004	  1.02751E-004	 -2.15143E-004	 -7.29656E-005
  8.19200E+000	  1.52388E-004	 -2.50960E-004	 -2.84126E-004	 -4.13631E-004	 -1.66626E-004	  4.97326E-004	  7.20964E-005	  2.11979E-004
  9.01120E+000	 -1.15851E-004	 -3.98634E-005	  6.98540E-004	 -1.43042E-005	 -5.60425E-005	 -1.96572E-004	 -1.91955E-004	  8.74499E-005
  9.83040E+000	  7.65325E-005	  1.08417E-004	 -1.41707E-004	  4.11008E-005	  9.63049E-006	  2.04326E-004	 -9.84063E-005	 -9.64453E-005
  1.06496E+001	 -1.21847E-004	 -1.16144E-004	 -2.02264E-004	 -2.72607E-004	  5.08519E-004	 -1.39179E-005	 -4.12129E-004	 -1.44297E-004
  1.14688E+001	  1.18433E-004	 -2.34049E-004	 -2.01924E-004	 -2.58760E-004	 -2.67925E-004	 -2.41773E-004	 -5.18415E-005	 -2.79170E-004
  1.22880E+001	  1.10030E-004	 -2.01476E-004	  2.10020E-005	  1.22669E-004	  3.57123E-004	 -1.05989E-004	  6.93754E-004	  1.12292E-004
  1.31072E+001	 -9.84621E-005	 -1.52181E-006	  1.81769E-004	 -8.41661E-005	 -8.82718E-005	  5.35424E-005	  5.16756E-004	  1.49679E-005
  1.47456E+001	  6.78764E-005	 -5.14462E-005	  1.42312E-004	  1.61862E-004	  9.17763E-005	  1.33668E-004	 -7.02288E-005	 -2.08609E-004
  1.63840E+001	 -7.38798E-005	  3.13839E-005	  2.94574E-004	  1.00598E-004	 -4.78429E-005	  3.43024E-004	  9.18733E-005	  1.97134E-004
  1.80224E+001	 -6.74258E-005	  1.26317E-004	 -3.16316E-004	  4.26374E-004	 -1.81522E-004	  8.31313E-005	 -1.13353E-004	 -7.23623E-005
  1.96608E+001	  9.55226E-005	 -1.07589E-004	 -1.75211E-004	  2.56824E-005	  1.36541E-004	 -7.41552E-005	  3.88969E-005	  5.90422E-005
  2.12992E+001	 -9.64317E-005	 -1.17753E-004	 -2.47649E-004	  1.27676E-004	  7.87555E-005	 -2.10793E-004	  1.55503E-004	  2.09309E-004
  2.29376E+001	 -3.73113E-005	  2.44919E-004	  4.94582E-005	 -1.43293E-004	 -5.95837E-004	 -1.20278E-004	  1.10740E-004	 -7.24537E-005
  2.45760E+001	  1.63408E-005	 -1.44843E-004	  1.62115E-004	  5.56748E-005	  1.81374E-004	  5.07380E-005	  7.96573E-005	 -7.80667E-005
  2.62144E+001	 -7.09250E-006	 -8.38850E-005	 -1.94824E-004	  2.18393E-004	  2.92823E-004	 -6.64276E-006	  8.83902E-005	 -9.51003E-005
  2.94912E+001	  5.38637E-005	  1.64531E-004	 -4.00444E-005	  5.07129E-005	  1.46724E-004	 -5.36333E-005	 -9.78230E-005	 -8.75450E-006
  3.27680E+001	  9.06211E-005	  4.72935E-005	 -1.76381E-005	  1.15127E-004	 -6.66226E-005	  8.87882E-005	  1.11750E-004	  4.85682E-005
  3.60448E+001	  3.27978E-005	 -3.69161E-005	  3.04888E-005	 -8.92022E-006	  2.27287E-004	 -2.20146E-004	  1.52047E-004	 -1.45461E-004
  3.93216E+001	 -5.84263E-006	 -1.85323E-004	 -1.39735E-005	  2.18701E-004	 -1.69988E-005	 -1.62172E-004	 -4.11092E-005	  8.05132E-005
  4.25984E+001	  4.62514E-005	  1.18072E-004	  2.20370E-004	 -1.34205E-004	  2.67951E-004	  4.60516E-005	  1.61901E-004	 -8.59200E-005
  4.58752E+001	  2.87724E-005	 -1.44830E-004	  1.93173E-004	  6.96997E-005	  3.50226E-004	 -2.48656E-004	  1.58989E-004	 -5.32264E-005
