ALV-7004 CGS-8F Data, Single Run Data
Date :	"11.05.2021"
Time :	"09:23:59"
Samplename : 	"092 2021 Toluol"
SampMemo(0) : 	"Toluol-Messung "
SampMemo(1) : 	""
SampMemo(2) : 	""
SampMemo(3) : 	""
SampMemo(4) : 	""
SampMemo(5) : 	""
SampMemo(6) : 	""
SampMemo(7) : 	""
SampMemo(8) : 	""
SampMemo(9) : 	""
Temperature [K] :	     292.94557
Viscosity [cp]  :	       1.00678
Refractive Index:	       1.33200
Wavelength [nm] :	     632.80000
Angle(1)[°]     :	      34.00000
Angle(2)[°]     :	      50.00000
Angle(3)[°]     :	      66.00000
Angle(4)[°]     :	      82.00000
Angle(5)[°]     :	      98.00000
Angle(6)[°]     :	     114.00000
Angle(7)[°]     :	     130.00000
Angle(8)[°]     :	     146.00000
Duration [s]    :	          30.0
Runs            :	         1
Mode            :	"8 x AUTO, 100 ns STC"
MeanCR1 [kHz]   :	      38.60830
MeanCR2 [kHz]   :	      27.10392
MeanCR3 [kHz]   :	      23.57533
MeanCR4 [kHz]   :	      18.77778
MeanCR5 [kHz]   :	      18.03682
MeanCR6 [kHz]   :	      22.42685
MeanCR7 [kHz]   :	      25.76525
MeanCR8 [kHz]   :	      35.29639
Atten[1]        :	       1.00000
Atten[2]        :	       1.00000
Atten[3]        :	       1.00000
RelSens[1]      :	       1.00000
RelSens[2]      :	       1.00000
RelSens[3]      :	       1.00000
RelSens[4]      :	       1.00000
RelSens[5]      :	       1.00000
RelSens[6]      :	       1.00000
RelSens[7]      :	       1.00000
RelSens[8]      :	       1.00000
DC[1][kHz]      :	       0.00000
DC[2][kHz]      :	       0.00000
DC[3][kHz]      :	       0.00000
DC[4][kHz]      :	       0.00000
DC[5][kHz]      :	       0.00000
DC[6][kHz]      :	       0.00000
DC[7][kHz]      :	       0.00000
DC[8][kHz]      :	       0.00000

"Correlation"
  1.00000E-004	 -1.13530E-001	  1.54040E-001	 -8.11161E-002	  6.64890E-002	  2.51202E-002	  1.83561E-001	  2.19089E-001	 -1.17993E-001
  2.00000E-004	  3.98353E-002	  1.27042E-001	  5.14790E-002	  1.05951E-001	  7.85513E-002	  9.46175E-002	  1.33754E-001	  3.62501E-002
  3.00000E-004	  8.38600E-003	  5.06916E-002	  4.29880E-004	  5.08581E-002	  2.25196E-002	  3.71718E-002	  3.88864E-002	  1.60609E-002
  4.00000E-004	  5.70946E-003	  5.87284E-002	  1.83302E-002	 -2.88339E-002	  1.28264E-002	  3.73218E-002	  4.35390E-002	 -5.02319E-003
  5.00000E-004	  1.32038E-002	  2.94693E-002	  4.94900E-002	 -1.19217E-002	 -3.63492E-002	  2.59226E-002	  2.49286E-002	 -1.38802E-003
  6.00000E-004	  1.54788E-002	  2.97204E-002	 -1.08407E-002	 -1.34592E-002	 -1.31799E-002	  1.92446E-003	  1.85739E-002	  5.88234E-003
  7.00000E-004	  1.06610E-002	  2.82135E-002	 -9.18328E-003	 -1.34592E-002	 -1.17614E-002	  4.00216E-002	  1.47157E-002	  6.66531E-003
  8.00000E-004	  9.85806E-003	  4.12734E-002	 -8.96111E-004	  5.50285E-003	 -1.35892E-003	  3.85217E-002	 -3.66771E-003	 -1.52577E-002
  9.00000E-004	  3.79617E-002	  5.68447E-002	 -4.46525E-002	 -4.74693E-003	  1.47813E-003	 -4.54720E-002	  1.67582E-002	  5.32306E-003
  1.00000E-003	 -1.98515E-002	  2.41951E-002	  9.04852E-003	  1.67776E-002	  9.22637E-002	  5.47205E-002	  3.59485E-003	 -2.50656E-003
  1.10000E-003	 -1.47661E-002	  1.31444E-002	  9.71149E-003	 -8.84684E-003	 -1.08157E-002	  8.52393E-003	  4.17479E-004	 -7.87544E-003
  1.20000E-003	  3.42146E-002	 -1.34776E-002	  2.76118E-002	  1.88276E-002	 -5.14165E-003	  4.92421E-003	  9.04177E-003	  1.49423E-002
  1.30000E-003	 -2.45402E-003	 -4.43618E-003	 -5.32712E-002	 -1.39717E-002	  1.47813E-003	 -2.02739E-002	  2.81060E-002	 -5.19100E-003
  1.40000E-003	  4.23733E-003	  2.11813E-002	  2.23080E-002	  3.01023E-002	 -5.62085E-002	 -5.27503E-003	  1.81200E-002	  1.40475E-002
  1.50000E-003	  1.94936E-002	  5.78494E-002	 -6.86289E-003	  2.08775E-002	  2.70116E-002	 -5.27503E-003	  4.50267E-003	 -1.23495E-002
  1.60000E-003	  1.61479E-002	  1.89208E-002	 -2.11169E-002	 -2.67840E-002	 -2.77750E-003	  1.69232E-002	  2.23306E-003	 -9.44142E-003
  1.80000E-003	  1.29308E-003	  7.36788E-003	 -2.22212E-003	 -1.39718E-002	 -3.16208E-002	  9.12383E-003	 -9.11468E-003	  2.59037E-002
  2.00000E-003	 -9.81455E-003	  1.28932E-002	 -2.22212E-003	  6.52777E-003	 -9.39728E-003	  1.66233E-002	  6.09130E-003	 -1.19022E-002
  2.20000E-003	 -2.70782E-002	  2.84646E-002	  2.62858E-002	  1.47276E-002	  2.37016E-002	  2.02230E-002	  1.40347E-002	 -5.07920E-003
  2.40000E-003	 -1.18220E-002	 -8.70580E-003	  1.40208E-002	  2.54898E-002	 -2.68924E-002	 -1.63742E-002	 -5.02949E-003	  1.96745E-003
  2.60000E-003	 -1.63721E-002	  9.12594E-003	 -2.37688E-002	 -1.03844E-002	  4.31512E-003	 -5.57506E-003	 -4.89165E-004	 -4.58759E-005
  2.80000E-003	  7.44912E-003	  7.11673E-003	  2.08722E-003	  8.06523E-003	  1.85004E-002	  3.46219E-002	 -1.81917E-002	  1.06919E-002
  3.00000E-003	 -7.13801E-003	  3.60061E-003	  1.20319E-002	 -6.28445E-003	 -4.66886E-003	  3.42427E-003	  9.72382E-003	  2.37785E-002
  3.20000E-003	 -7.80725E-003	  1.64105E-002	  1.21975E-002	  2.42085E-002	  2.34651E-002	  1.92569E-003	 -7.29793E-003	  1.15866E-002
  3.60000E-003	  4.30408E-003	  1.26433E-002	 -6.03433E-003	  2.94024E-003	 -7.26960E-003	  1.24249E-002	  7.56764E-003	  1.03003E-002
  4.00000E-003	  3.70186E-003	 -1.88763E-002	 -1.26641E-002	 -3.31902E-002	 -2.54118E-003	  5.52542E-003	 -3.75794E-004	  9.34956E-003
  4.40000E-003	  2.16285E-003	 -1.30998E-002	  1.00428E-002	 -1.03845E-002	  1.37718E-002	 -1.39731E-002	 -1.24044E-002	 -7.31634E-003
  4.80000E-003	 -3.92627E-003	  9.25271E-003	  1.33577E-002	 -1.98655E-002	 -4.19613E-003	  4.02553E-003	  7.34068E-003	 -8.37893E-003
  5.20000E-003	  9.85790E-003	 -7.93349E-004	 -8.96271E-004	 -1.65343E-002	 -2.30476E-003	  1.17574E-003	 -8.29704E-004	  8.84623E-003
  5.60000E-003	  3.43421E-003	 -1.41044E-002	  1.46836E-002	 -2.69713E-003	  3.36933E-003	 -1.08234E-002	 -7.97879E-003	  5.69202E-004
  6.00000E-003	  4.57174E-003	  5.86217E-003	 -7.30527E-004	 -7.05329E-003	 -2.14548E-002	  2.22567E-003	  4.16331E-003	  7.83956E-003
  6.40000E-003	  3.53436E-003	  6.61671E-003	 -3.71413E-003	  9.60238E-003	 -2.11004E-002	 -3.39772E-003	 -3.43990E-003	 -1.13675E-003
  7.20000E-003	  6.91444E-003	 -2.25884E-004	  6.06475E-003	  1.84428E-002	  4.07838E-003	 -4.74347E-004	 -1.26316E-002	 -1.30085E-004
  8.00000E-003	 -8.40875E-003	  6.86917E-003	  6.47911E-003	 -4.61918E-003	  1.59597E-003	  7.25564E-004	  1.60985E-003	 -1.13675E-003
  8.80000E-003	  4.53901E-003	 -1.67001E-003	 -3.46551E-003	 -1.14097E-002	 -1.93273E-002	  1.37746E-002	 -6.22010E-003	  6.24546E-003
  9.60000E-003	  1.92939E-003	 -1.64389E-004	 -5.04008E-003	 -1.00003E-002	  4.07838E-003	  1.60994E-002	  5.29787E-003	 -1.86379E-003
  1.04000E-002	  2.69889E-003	  1.21695E-003	  3.46594E-004	  1.45991E-002	 -1.58992E-002	  7.85003E-003	  3.14180E-003	  9.46120E-003
  1.12000E-002	  3.53531E-003	  1.28327E-002	 -4.12849E-003	  2.81190E-003	  1.10528E-002	  6.50013E-003	  9.78024E-003	 -5.19137E-003
  1.20000E-002	  2.29741E-003	 -4.93628E-003	  3.57860E-003	 -7.18162E-003	  1.77442E-004	  4.62527E-003	  7.11351E-003	 -1.86011E-004
  1.28000E-002	 -3.29371E-004	 -1.35989E-002	  7.84607E-003	 -1.24991E-002	 -1.13467E-002	  2.86390E-003	 -1.39773E-003	  2.10825E-003
  1.44000E-002	 -7.14123E-004	  4.98640E-003	 -1.64276E-003	 -2.88996E-003	  2.89763E-003	  9.91338E-003	  6.44864E-004	  2.40186E-003
  1.60000E-002	 -5.64899E-003	  7.40374E-003	  4.69694E-003	  1.20913E-004	 -2.71737E-003	 -9.09773E-003	  2.29029E-003	  2.19214E-003
  1.76000E-002	  3.03303E-003	  5.91229E-004	  9.83499E-003	  6.27077E-003	 -9.98731E-003	  5.63869E-003	  1.63779E-003	  7.24086E-004
  1.92000E-002	 -2.32005E-003	  7.87595E-003	 -2.30573E-003	  6.07859E-003	  1.71553E-003	  8.33849E-003	 -3.60014E-005	 -1.96036E-003
  2.08000E-002	 -4.12671E-003	  6.86706E-004	 -4.99907E-003	  1.55596E-002	  1.23545E-002	  9.87445E-003	  2.19323E-004	  3.08696E-003
  2.24000E-002	 -2.73826E-003	  9.06762E-003	  2.58371E-003	 -9.87261E-003	  1.22954E-002	  7.13716E-003	 -2.64598E-003	 -5.06284E-004
  2.40000E-002	 -3.35721E-003	 -4.58879E-003	  1.09952E-002	  4.86143E-003	  6.56216E-003	 -3.43705E-003	  1.24062E-003	  3.80001E-003
  2.56000E-002	  4.98775E-004	 -6.45373E-003	  1.09751E-002	 -4.68451E-003	  1.20609E-004	 -8.04921E-005	 -4.48962E-003	 -1.70782E-003
  2.88000E-002	 -1.91848E-003	 -2.96898E-003	  1.38270E-003	 -7.82350E-003	 -5.96724E-003	 -3.96145E-003	 -3.24137E-003	  2.80820E-003
  3.20000E-002	 -3.69168E-003	  1.64596E-003	  4.42824E-003	  4.41215E-003	 -5.31324E-004	 -3.58507E-003	  5.04250E-003	 -1.81268E-003
  3.52000E-002	  6.66058E-004	  2.63327E-004	 -4.62551E-003	 -1.41740E-003	 -6.17587E-003	  1.83328E-003	  2.90623E-004	 -8.96893E-004
  3.84000E-002	  3.37605E-003	  1.80164E-003	 -1.50431E-004	 -2.00245E-004	 -8.09679E-003	 -8.17849E-003	  1.25518E-003	  5.64173E-004
  4.16000E-002	  2.02942E-003	  1.21738E-005	  7.74669E-005	 -5.45325E-003	 -5.93945E-003	 -2.47816E-004	 -1.73779E-003	 -2.42787E-003
  4.48000E-002	 -2.79095E-004	  7.81329E-004	  1.52773E-003	 -5.18702E-004	 -4.40271E-003	  7.40163E-003	 -5.68113E-003	 -2.45583E-003
  4.80000E-002	 -5.80205E-004	  2.46335E-004	  4.38681E-003	  4.79837E-003	  4.96546E-003	  1.34440E-003	  2.06371E-003	 -1.49024E-003
  5.12000E-002	 -8.24879E-004	  1.53567E-003	  6.18019E-003	 -8.06836E-004	  6.91600E-003	 -5.14806E-003	  1.02189E-003	  6.19216E-004
  5.76000E-002	  4.42366E-003	 -4.08388E-003	  4.53460E-003	 -7.91762E-003	  2.24669E-003	 -5.17136E-004	 -2.58225E-003	 -2.06873E-003
  6.40000E-002	 -1.23472E-003	 -7.49546E-004	  1.76874E-003	 -6.07204E-006	 -3.42564E-003	 -4.94182E-003	  1.71694E-003	 -1.98703E-004
  7.04000E-002	 -5.38337E-003	  1.78553E-003	  7.08142E-003	 -1.06308E-003	 -2.92325E-003	 -1.61393E-003	 -1.71576E-003	 -1.85202E-003
  7.68000E-002	 -2.01354E-003	  2.36762E-003	  9.94514E-005	  4.25399E-003	  4.06596E-003	 -1.56706E-003	 -9.85247E-004	 -1.30411E-003
  8.32000E-002	 -1.66224E-003	 -3.26763E-003	 -3.69194E-003	 -1.03105E-003	 -4.69817E-003	  2.89057E-004	  1.28431E-003	  3.63189E-004
  8.96000E-002	  2.05564E-003	  6.16097E-004	  1.36325E-003	  1.21109E-003	 -5.86373E-003	  3.19510E-003	 -1.19679E-003	 -2.98624E-003
  9.60000E-002	  1.49551E-004	  4.13224E-003	  4.72375E-004	 -4.73058E-003	 -6.32915E-004	  4.59210E-004	  3.32228E-003	  3.18659E-003
  1.02400E-001	 -1.52793E-003	  6.61027E-004	  1.13051E-003	 -2.60458E-003	  1.04256E-003	 -1.88400E-003	 -2.08278E-003	 -1.01660E-003
  1.15200E-001	 -4.09756E-005	  9.91961E-004	 -4.72236E-003	 -2.74352E-004	 -2.90272E-003	 -4.91904E-004	  1.94571E-003	 -6.18993E-004
  1.28000E-001	  1.44184E-004	  1.86707E-003	 -2.19993E-003	  2.84864E-003	  3.38460E-003	  2.94131E-004	  5.88742E-004	 -9.70279E-004
  1.40800E-001	 -4.74770E-004	 -3.09799E-005	  3.65422E-004	  8.30706E-004	  3.59147E-003	  2.78019E-003	 -9.79914E-004	  5.80788E-004
  1.53600E-001	 -1.83093E-003	 -2.13439E-003	 -4.56698E-003	  3.01680E-003	 -4.12909E-004	  4.33332E-004	 -1.09339E-003	  3.66022E-003
  1.66400E-001	 -2.40084E-003	  2.58259E-003	 -1.54018E-004	 -2.53252E-003	  8.06136E-004	  1.80199E-003	  4.12515E-004	 -1.22458E-003
  1.79200E-001	  1.21974E-003	 -3.20083E-004	  3.93525E-004	 -2.43642E-003	 -1.39485E-005	 -2.35555E-003	  2.30574E-004	 -2.11066E-003
  1.92000E-001	  1.50278E-003	 -1.49866E-003	 -2.08370E-005	 -4.58529E-004	 -9.90958E-004	 -8.65019E-004	 -7.62366E-004	 -1.89306E-003
  2.04800E-001	 -6.04771E-004	 -4.89228E-004	  2.23921E-003	  2.53661E-003	  2.27118E-003	 -1.26877E-003	  4.75559E-005	 -8.53169E-004
  2.30400E-001	  1.10983E-003	 -4.38881E-004	 -1.22185E-003	  9.43077E-004	  5.09107E-004	  3.58109E-003	  1.46428E-003	  8.57831E-004
  2.56000E-001	 -1.39197E-004	 -1.04126E-003	 -2.26923E-003	 -9.78772E-004	  8.39657E-004	  4.86107E-004	  9.24560E-004	  5.72091E-004
  2.81600E-001	  2.16405E-003	  1.20085E-003	  4.77442E-004	  4.26885E-004	  2.45575E-003	 -9.13027E-004	 -1.25405E-003	  9.75907E-005
  3.07200E-001	 -2.13650E-003	 -3.79348E-004	  1.49633E-003	 -1.41488E-003	 -1.86456E-003	 -6.95071E-004	  1.14497E-003	  1.20563E-003
  3.32800E-001	 -7.63593E-004	 -1.55271E-003	 -9.70255E-004	  7.25019E-004	  1.08880E-003	  2.62440E-003	 -8.30279E-004	 -1.49455E-003
  3.58400E-001	  3.09248E-005	  2.62274E-003	  2.45463E-004	  1.82207E-003	  2.75853E-003	  8.59181E-004	 -4.08279E-004	 -1.79252E-003
  3.84000E-001	 -2.69702E-003	  6.12204E-004	 -1.44493E-004	 -8.38637E-004	  2.07512E-003	  1.58711E-003	 -3.63951E-004	  7.11926E-004
  4.09600E-001	 -1.56958E-003	 -1.16903E-003	  1.55128E-003	  2.32791E-003	  1.45435E-004	  1.03295E-003	 -8.79242E-005	  1.02479E-003
  4.60800E-001	 -9.22470E-004	  6.40410E-004	  3.34482E-005	 -1.45412E-003	 -2.57223E-004	  9.29827E-004	  8.44134E-005	 -1.26962E-004
  5.12000E-001	  1.08363E-004	 -1.88299E-004	 -2.81025E-004	  1.15630E-003	  6.60827E-005	  1.31277E-003	  4.66868E-004	  3.44923E-004
  5.63200E-001	 -1.31571E-003	 -3.07992E-004	  1.57589E-003	 -4.28847E-005	  1.26844E-003	  1.71753E-003	 -1.64459E-003	  1.79316E-004
  6.14400E-001	 -3.82753E-004	 -1.33452E-003	  6.27814E-004	 -3.53346E-004	 -1.20498E-003	 -3.15569E-004	 -1.81427E-003	 -1.11662E-003
  6.65600E-001	  1.29379E-003	  1.05113E-003	  1.56553E-003	 -3.10261E-005	 -1.89401E-003	  1.09557E-004	 -1.45551E-004	  9.84842E-005
  7.16800E-001	 -1.33277E-003	 -6.47449E-004	 -2.63087E-004	  2.28156E-003	  8.19330E-004	  8.77339E-004	 -2.16815E-003	 -1.07817E-003
  7.68000E-001	  1.18359E-003	 -5.09115E-004	  1.45914E-004	 -1.01754E-003	 -1.44838E-004	  1.65098E-003	  4.95436E-004	 -8.30462E-004
  8.19200E-001	  2.81586E-004	 -1.24564E-004	  5.81718E-004	 -8.37885E-004	 -9.11150E-004	 -1.46640E-003	  2.64269E-004	  6.62177E-004
  9.21600E-001	 -6.25762E-005	 -2.49655E-004	  4.11239E-004	  1.27688E-003	  1.71913E-003	  8.00771E-004	 -5.57156E-004	  4.59024E-005
  1.02400E+000	 -7.75107E-004	 -1.35113E-003	 -1.89339E-003	  1.17878E-003	  3.82748E-004	 -5.37233E-004	  4.51584E-004	 -6.03247E-004
  1.12640E+000	  3.00567E-004	  3.74155E-004	 -3.07002E-004	  8.98948E-004	  8.62857E-004	 -2.55607E-004	  2.39788E-004	  9.43093E-004
  1.22880E+000	  5.67034E-004	 -2.52939E-005	  1.35176E-003	  2.89791E-004	 -8.40327E-004	  4.68734E-005	  1.00024E-003	  7.28345E-004
  1.33120E+000	 -1.22698E-004	 -3.44510E-004	  6.16682E-004	  4.24774E-004	 -4.04551E-004	 -2.05803E-004	 -2.49504E-006	  2.25663E-004
  1.43360E+000	 -5.56790E-005	 -5.04254E-004	  9.28378E-004	 -2.25676E-003	  3.30757E-005	 -6.94121E-004	  6.56043E-004	  2.77187E-005
  1.53600E+000	  2.34293E-004	 -5.96166E-004	 -8.62130E-005	  9.35741E-004	 -2.99992E-003	 -9.92253E-004	 -9.93771E-005	 -5.89680E-004
  1.63840E+000	  2.47690E-004	 -3.50977E-004	  6.84314E-004	  8.08240E-004	 -2.62704E-004	  6.07121E-004	 -8.19176E-005	 -2.36032E-004
  1.84320E+000	  6.47959E-004	  1.41944E-004	  2.87542E-005	  5.44254E-004	 -9.71203E-005	  5.17224E-004	  4.83321E-006	  6.64130E-004
  2.04800E+000	  2.75572E-004	  6.97840E-005	  6.85161E-004	 -5.89140E-004	  3.92104E-004	 -3.04048E-005	 -9.95740E-005	  2.03883E-004
  2.25280E+000	  6.21415E-004	 -5.30448E-005	 -4.42445E-004	 -1.30177E-004	  4.72570E-005	  6.52975E-004	 -1.50170E-004	 -1.41256E-004
  2.45760E+000	  2.21235E-004	  9.12889E-004	 -3.32497E-004	 -1.64583E-003	 -2.45329E-004	 -5.45532E-004	 -1.17321E-003	  5.69427E-005
  2.66240E+000	 -1.99186E-004	 -5.25031E-004	  7.51133E-005	 -6.63759E-004	 -5.33901E-004	 -5.56806E-004	  5.42533E-004	  3.99696E-004
  2.86720E+000	  2.00250E-004	  2.12836E-004	  4.07877E-004	 -5.93344E-005	 -4.76634E-004	  9.87422E-005	 -7.06448E-004	  5.54314E-005
  3.07200E+000	 -2.98227E-004	 -5.30289E-005	 -4.34574E-005	 -1.84927E-003	 -1.10757E-003	 -7.41848E-004	 -3.01773E-004	 -1.79497E-004
  3.27680E+000	  1.34390E-004	 -2.19838E-004	 -1.29272E-004	 -6.26763E-004	 -4.91388E-004	  1.27204E-004	 -7.24094E-004	 -1.75404E-004
  3.68640E+000	  2.29372E-005	  3.82435E-004	  5.70825E-004	 -6.82081E-004	  3.03911E-004	  2.65802E-004	  1.69216E-004	 -4.90562E-005
  4.09600E+000	  6.31388E-005	 -4.03491E-005	 -1.37475E-004	 -2.47236E-004	  8.83187E-004	  2.78939E-004	 -9.52496E-006	  6.08429E-005
  4.50560E+000	  2.11555E-004	 -1.62743E-004	 -2.83618E-004	 -5.58622E-005	 -3.40883E-004	 -2.48618E-004	 -1.59753E-004	 -8.27449E-005
  4.91520E+000	 -3.96087E-004	  1.73053E-004	 -5.19693E-005	 -3.60626E-004	 -2.76822E-004	  1.39504E-004	 -3.43114E-004	 -2.79645E-004
  5.32480E+000	  2.13983E-004	 -8.06817E-004	 -1.67512E-004	  3.00440E-004	 -2.08764E-004	  2.44118E-004	  2.11645E-004	 -3.33318E-005
  5.73440E+000	  3.26771E-005	 -1.48259E-004	  8.65981E-004	 -3.30049E-004	 -1.53831E-004	 -4.76112E-004	 -1.35269E-005	 -2.55156E-004
  6.14400E+000	 -1.93813E-004	 -4.35188E-004	  3.64058E-004	  2.11037E-004	  1.84190E-005	  9.28092E-004	 -7.03178E-006	 -2.03438E-004
  6.55360E+000	 -4.67513E-006	  9.47917E-006	  6.12946E-004	  1.96118E-004	  1.74821E-004	  8.78369E-004	 -3.20895E-004	  7.92964E-005
  7.37280E+000	 -7.43304E-005	  1.35362E-004	 -2.03276E-004	 -4.03272E-005	  2.32090E-004	  5.06191E-004	  2.42551E-004	  4.89849E-005
  8.19200E+000	  5.69310E-005	 -2.63383E-004	  1.69461E-004	 -1.37866E-005	  1.98680E-004	  2.66677E-004	 -1.65210E-004	 -2.24891E-005
  9.01120E+000	  2.33321E-004	 -1.06096E-005	 -8.48717E-006	 -3.99954E-004	  1.67037E-004	  2.41408E-004	  4.46590E-004	 -1.87261E-004
  9.83040E+000	  1.82023E-004	 -3.24995E-005	 -1.44060E-004	  2.93937E-004	 -1.46382E-004	 -9.09110E-006	 -2.31842E-004	  5.74304E-005
  1.06496E+001	 -6.22825E-005	  6.17040E-005	  1.07490E-005	  1.38196E-004	  2.19223E-004	 -1.72160E-004	 -3.53255E-004	  2.80785E-004
  1.14688E+001	  5.61222E-005	  4.83024E-005	 -2.07627E-004	 -2.14753E-004	 -7.85195E-004	 -4.44356E-005	  1.39618E-004	 -6.75190E-005
  1.22880E+001	 -3.42872E-005	  1.42056E-004	 -5.06764E-005	  6.65299E-005	 -3.28912E-004	 -6.73328E-004	 -1.08136E-004	 -1.09226E-004
  1.31072E+001	 -1.24297E-004	 -2.13668E-005	 -2.92910E-004	  1.63948E-004	 -7.20882E-006	 -1.52779E-004	  5.51118E-005	 -8.60821E-006
  1.47456E+001	 -1.47109E-005	  6.81483E-005	 -2.86265E-004	  2.37568E-004	 -1.83455E-004	  1.21033E-004	  1.64705E-004	 -6.73547E-005
  1.63840E+001	  2.42142E-004	  3.20349E-006	 -1.63606E-006	 -2.61828E-004	 -2.09781E-004	  4.55595E-005	  1.60243E-004	 -5.82144E-005
  1.80224E+001	  2.89380E-005	  2.62951E-004	  2.07000E-004	 -6.12002E-005	 -3.83684E-005	 -1.78597E-004	 -1.09303E-004	  4.91414E-005
  1.96608E+001	  1.51501E-005	  4.25470E-004	  2.48031E-004	 -3.32591E-004	  1.93690E-004	 -1.27201E-004	 -4.07619E-004	  5.15274E-005
  2.12992E+001	 -1.43862E-004	 -1.02306E-004	  9.54831E-006	  2.61959E-005	 -3.42530E-004	 -2.84198E-005	 -1.76969E-005	 -9.67570E-005
  2.29376E+001	 -7.16398E-005	 -5.65209E-005	  1.92809E-004	  3.39080E-004	 -2.14361E-004	 -2.82906E-004	 -4.74394E-005	  2.53000E-004
  2.45760E+001	 -2.88551E-005	 -3.42304E-004	  2.02830E-005	 -6.00425E-005	  3.85919E-004	  2.52592E-004	  1.19517E-004	  1.92994E-004
  2.62144E+001	 -1.08981E-004	  8.31237E-006	  9.14337E-005	 -1.13853E-004	  2.00900E-004	 -7.27716E-005	 -9.04230E-005	  1.08088E-004
  2.94912E+001	 -1.45698E-004	 -9.16542E-005	  7.31025E-006	  1.79555E-004	 -2.20607E-004	 -4.52682E-005	  9.85168E-005	 -1.96949E-006
  3.27680E+001	 -2.91770E-006	  6.67185E-005	 -6.22781E-005	  2.50960E-004	  9.82497E-005	 -4.12691E-005	 -1.08816E-005	  5.29037E-006
  3.60448E+001	 -7.54244E-005	  3.66523E-005	 -1.67260E-004	  1.40590E-004	 -1.42567E-005	  3.29205E-004	  3.81269E-005	  1.94900E-005
  3.93216E+001	 -8.02482E-005	  1.74557E-004	  2.50592E-004	 -6.77531E-005	  2.15793E-005	 -9.74525E-005	 -4.85993E-005	 -7.63975E-005
  4.25984E+001	 -1.12497E-004	  3.39990E-005	 -2.62364E-004	  2.26489E-004	  2.51215E-004	  4.53803E-005	  2.32345E-004	 -1.05243E-004
  4.58752E+001	  9.68779E-005	 -4.22128E-005	  1.10785E-005	  3.16789E-005	  1.43342E-004	 -2.39535E-004	 -2.27140E-005	 -3.79233E-006
