ALV-7004 CGS-8F Data, Single Run Data
Date :	"05.01.2021"
Time :	"15:57:40"
Samplename : 	"7 2021 MW002-03"
SampMemo(0) : 	"nach ca 3 Monaten, kein Detektor abgeschwächt, "
SampMemo(1) : 	"unverdünnt"
SampMemo(2) : 	""
SampMemo(3) : 	""
SampMemo(4) : 	""
SampMemo(5) : 	""
SampMemo(6) : 	""
SampMemo(7) : 	""
SampMemo(8) : 	""
SampMemo(9) : 	""
Temperature [K] :	     292.93468
Viscosity [cp]  :	       1.00705
Refractive Index:	       1.33200
Wavelength [nm] :	     632.80000
Angle(1)[°]     :	      34.00000
Angle(2)[°]     :	      50.00000
Angle(3)[°]     :	      66.00000
Angle(4)[°]     :	      82.00000
Angle(5)[°]     :	      98.00000
Angle(6)[°]     :	     114.00000
Angle(7)[°]     :	     130.00000
Angle(8)[°]     :	     146.00000
Duration [s]    :	          30.0
Runs            :	         1
Mode            :	"8 x AUTO, 100 ns STC"
MeanCR1 [kHz]   :	     134.13045
MeanCR2 [kHz]   :	     105.01161
MeanCR3 [kHz]   :	      95.19587
MeanCR4 [kHz]   :	      81.53889
MeanCR5 [kHz]   :	      87.28458
MeanCR6 [kHz]   :	     109.75345
MeanCR7 [kHz]   :	     131.54471
MeanCR8 [kHz]   :	     194.24171
Atten[1]        :	       1.00000
Atten[2]        :	       1.00000
Atten[3]        :	       1.00000
RelSens[1]      :	       1.00000
RelSens[2]      :	       1.00000
RelSens[3]      :	       1.00000
RelSens[4]      :	       1.00000
RelSens[5]      :	       1.00000
RelSens[6]      :	       1.00000
RelSens[7]      :	       1.00000
RelSens[8]      :	       1.00000
DC[1][kHz]      :	       0.00000
DC[2][kHz]      :	       0.00000
DC[3][kHz]      :	       0.00000
DC[4][kHz]      :	       0.00000
DC[5][kHz]      :	       0.00000
DC[6][kHz]      :	       0.00000
DC[7][kHz]      :	       0.00000
DC[8][kHz]      :	       0.00000

"Correlation"
  1.00000E-004	  5.67101E-001	  6.60166E-001	  6.27114E-001	  6.52317E-001	  6.66211E-001	  6.93074E-001	  7.17763E-001	  6.32100E-001
  2.00000E-004	  9.59393E-001	  9.73269E-001	  9.73050E-001	  9.90361E-001	  9.91722E-001	  9.72271E-001	  1.00733E+000	  9.79338E-001
  3.00000E-004	  9.54455E-001	  9.54475E-001	  9.75887E-001	  9.81530E-001	  9.79459E-001	  9.56357E-001	  9.89599E-001	  9.64988E-001
  4.00000E-004	  9.47387E-001	  9.45958E-001	  9.76821E-001	  9.60412E-001	  9.78470E-001	  9.63781E-001	  9.86371E-001	  9.65035E-001
  5.00000E-004	  9.47780E-001	  9.49667E-001	  9.73852E-001	  9.71256E-001	  9.78595E-001	  9.58123E-001	  9.81722E-001	  9.60165E-001
  6.00000E-004	  9.46317E-001	  9.45014E-001	  9.88330E-001	  9.74670E-001	  9.73404E-001	  9.63588E-001	  9.90385E-001	  9.63167E-001
  7.00000E-004	  9.46123E-001	  9.50525E-001	  9.75389E-001	  9.73444E-001	  9.72502E-001	  9.65317E-001	  9.83536E-001	  9.66013E-001
  8.00000E-004	  9.52778E-001	  9.46430E-001	  9.71735E-001	  9.66857E-001	  9.59362E-001	  9.53045E-001	  9.79590E-001	  9.63891E-001
  9.00000E-004	  9.49031E-001	  9.47933E-001	  9.68330E-001	  9.71671E-001	  9.76314E-001	  9.46054E-001	  9.84277E-001	  9.62908E-001
  1.00000E-003	  9.42111E-001	  9.41420E-001	  9.67998E-001	  9.73729E-001	  9.79825E-001	  9.37628E-001	  9.80346E-001	  9.58163E-001
  1.10000E-003	  9.44293E-001	  9.61769E-001	  9.72925E-001	  9.55740E-001	  9.79524E-001	  9.55989E-001	  9.62293E-001	  9.59294E-001
  1.20000E-003	  9.44002E-001	  9.47374E-001	  9.54932E-001	  9.70840E-001	  9.57456E-001	  9.50286E-001	  9.85849E-001	  9.53270E-001
  1.30000E-003	  9.45495E-001	  9.58744E-001	  9.66586E-001	  9.68126E-001	  9.81079E-001	  9.37518E-001	  9.77019E-001	  9.54271E-001
  1.40000E-003	  9.47024E-001	  9.57549E-001	  9.60523E-001	  9.53902E-001	  9.83386E-001	  9.52457E-001	  9.75145E-001	  9.65373E-001
  1.50000E-003	  9.38478E-001	  9.46931E-001	  9.71596E-001	  9.64275E-001	  9.80176E-001	  9.56247E-001	  9.72756E-001	  9.57274E-001
  1.60000E-003	  9.37868E-001	  9.44898E-001	  9.59125E-001	  9.69462E-001	  9.67263E-001	  9.53487E-001	  9.78516E-001	  9.53716E-001
  1.80000E-003	  9.42256E-001	  9.45833E-001	  9.74088E-001	  9.62109E-001	  9.80829E-001	  9.54021E-001	  9.75583E-001	  9.57469E-001
  2.00000E-003	  9.45924E-001	  9.46199E-001	  9.71056E-001	  9.66201E-001	  9.74860E-001	  9.47600E-001	  9.82327E-001	  9.56551E-001
  2.20000E-003	  9.43582E-001	  9.49060E-001	  9.78198E-001	  9.66617E-001	  9.75663E-001	  9.60552E-001	  9.68462E-001	  9.53493E-001
  2.40000E-003	  9.39720E-001	  9.40899E-001	  9.75804E-001	  9.55719E-001	  9.62146E-001	  9.53193E-001	  9.68190E-001	  9.54855E-001
  2.60000E-003	  9.43357E-001	  9.37344E-001	  9.67222E-001	  9.53924E-001	  9.58585E-001	  9.49495E-001	  9.70519E-001	  9.52251E-001
  2.80000E-003	  9.43352E-001	  9.45226E-001	  9.63527E-001	  9.61102E-001	  9.53771E-001	  9.53285E-001	  9.62914E-001	  9.56913E-001
  3.00000E-003	  9.39927E-001	  9.41815E-001	  9.64703E-001	  9.59417E-001	  9.71701E-001	  9.50856E-001	  9.69007E-001	  9.55384E-001
  3.20000E-003	  9.39598E-001	  9.41761E-001	  9.59001E-001	  9.50959E-001	  9.75213E-001	  9.50046E-001	  9.63745E-001	  9.50593E-001
  3.60000E-003	  9.42079E-001	  9.46858E-001	  9.59084E-001	  9.56627E-001	  9.58323E-001	  9.49255E-001	  9.58166E-001	  9.50343E-001
  4.00000E-003	  9.38473E-001	  9.48655E-001	  9.64773E-001	  9.56550E-001	  9.60780E-001	  9.49191E-001	  9.60079E-001	  9.47975E-001
  4.40000E-003	  9.40005E-001	  9.46849E-001	  9.68510E-001	  9.52775E-001	  9.61746E-001	  9.55759E-001	  9.67102E-001	  9.46279E-001
  4.80000E-003	  9.40055E-001	  9.46333E-001	  9.60240E-001	  9.48092E-001	  9.53721E-001	  9.48685E-001	  9.59376E-001	  9.46019E-001
  5.20000E-003	  9.37711E-001	  9.44074E-001	  9.60676E-001	  9.53344E-001	  9.50297E-001	  9.49964E-001	  9.58257E-001	  9.45514E-001
  5.60000E-003	  9.42185E-001	  9.42913E-001	  9.61721E-001	  9.56101E-001	  9.50297E-001	  9.34252E-001	  9.53630E-001	  9.40718E-001
  6.00000E-003	  9.41242E-001	  9.43216E-001	  9.65451E-001	  9.50225E-001	  9.59589E-001	  9.41593E-001	  9.57562E-001	  9.40737E-001
  6.40000E-003	  9.42284E-001	  9.45745E-001	  9.57202E-001	  9.54148E-001	  9.56050E-001	  9.41647E-001	  9.57932E-001	  9.42380E-001
  7.20000E-003	  9.42328E-001	  9.42269E-001	  9.59046E-001	  9.50679E-001	  9.52251E-001	  9.34187E-001	  9.56537E-001	  9.34867E-001
  8.00000E-003	  9.38541E-001	  9.43149E-001	  9.59655E-001	  9.45471E-001	  9.52558E-001	  9.38888E-001	  9.45542E-001	  9.32819E-001
  8.80000E-003	  9.38581E-001	  9.41325E-001	  9.57883E-001	  9.45400E-001	  9.45768E-001	  9.34596E-001	  9.47847E-001	  9.29849E-001
  9.60000E-003	  9.37384E-001	  9.45935E-001	  9.57907E-001	  9.45438E-001	  9.47887E-001	  9.35268E-001	  9.42008E-001	  9.29455E-001
  1.04000E-002	  9.38053E-001	  9.39877E-001	  9.56029E-001	  9.45334E-001	  9.47165E-001	  9.27200E-001	  9.40035E-001	  9.24894E-001
  1.12000E-002	  9.38163E-001	  9.38451E-001	  9.53378E-001	  9.41991E-001	  9.49485E-001	  9.29403E-001	  9.38587E-001	  9.24961E-001
  1.20000E-002	  9.39538E-001	  9.36951E-001	  9.48606E-001	  9.30972E-001	  9.47973E-001	  9.22330E-001	  9.34520E-001	  9.18459E-001
  1.28000E-002	  9.38725E-001	  9.37518E-001	  9.52203E-001	  9.38243E-001	  9.42491E-001	  9.21161E-001	  9.31817E-001	  9.14864E-001
  1.44000E-002	  9.39183E-001	  9.38164E-001	  9.53262E-001	  9.36690E-001	  9.36882E-001	  9.19480E-001	  9.26344E-001	  9.08755E-001
  1.60000E-002	  9.36685E-001	  9.35959E-001	  9.46436E-001	  9.29036E-001	  9.38186E-001	  9.13372E-001	  9.20495E-001	  9.03343E-001
  1.76000E-002	  9.35065E-001	  9.34103E-001	  9.41308E-001	  9.29561E-001	  9.30637E-001	  9.09076E-001	  9.16230E-001	  8.96018E-001
  1.92000E-002	  9.35091E-001	  9.35103E-001	  9.41013E-001	  9.28412E-001	  9.25954E-001	  9.00199E-001	  9.10598E-001	  8.89338E-001
  2.08000E-002	  9.35108E-001	  9.31684E-001	  9.41195E-001	  9.23674E-001	  9.16310E-001	  9.01977E-001	  9.05945E-001	  8.86401E-001
  2.24000E-002	  9.32966E-001	  9.34059E-001	  9.39462E-001	  9.21822E-001	  9.19432E-001	  8.96460E-001	  8.98495E-001	  8.80317E-001
  2.40000E-002	  9.34578E-001	  9.28401E-001	  9.39289E-001	  9.16195E-001	  9.15133E-001	  8.89041E-001	  8.94167E-001	  8.74311E-001
  2.56000E-002	  9.32536E-001	  9.26749E-001	  9.38365E-001	  9.16384E-001	  9.13263E-001	  8.84434E-001	  8.87424E-001	  8.68769E-001
  2.88000E-002	  9.33261E-001	  9.25016E-001	  9.32146E-001	  9.08990E-001	  9.03779E-001	  8.75128E-001	  8.79982E-001	  8.56067E-001
  3.20000E-002	  9.31232E-001	  9.22750E-001	  9.26926E-001	  9.02528E-001	  8.97184E-001	  8.68470E-001	  8.67987E-001	  8.46767E-001
  3.52000E-002	  9.29479E-001	  9.19600E-001	  9.26969E-001	  8.97006E-001	  8.89508E-001	  8.55657E-001	  8.58748E-001	  8.36808E-001
  3.84000E-002	  9.28217E-001	  9.18606E-001	  9.22050E-001	  8.92701E-001	  8.82399E-001	  8.48518E-001	  8.49989E-001	  8.23560E-001
  4.16000E-002	  9.26680E-001	  9.15906E-001	  9.18780E-001	  8.87664E-001	  8.78553E-001	  8.39488E-001	  8.39609E-001	  8.14098E-001
  4.48000E-002	  9.24399E-001	  9.13332E-001	  9.13021E-001	  8.82012E-001	  8.67572E-001	  8.32214E-001	  8.29064E-001	  8.03459E-001
  4.80000E-002	  9.23675E-001	  9.10544E-001	  9.08918E-001	  8.74866E-001	  8.59617E-001	  8.26495E-001	  8.20094E-001	  7.92655E-001
  5.12000E-002	  9.22653E-001	  9.08286E-001	  9.05145E-001	  8.70050E-001	  8.53842E-001	  8.16864E-001	  8.10943E-001	  7.82479E-001
  5.76000E-002	  9.19577E-001	  9.02904E-001	  8.96619E-001	  8.60290E-001	  8.39895E-001	  7.97997E-001	  7.91365E-001	  7.63413E-001
  6.40000E-002	  9.17453E-001	  8.99434E-001	  8.89420E-001	  8.49013E-001	  8.24703E-001	  7.80965E-001	  7.71960E-001	  7.44437E-001
  7.04000E-002	  9.14289E-001	  8.94605E-001	  8.81713E-001	  8.40916E-001	  8.12631E-001	  7.69330E-001	  7.55110E-001	  7.24009E-001
  7.68000E-002	  9.12530E-001	  8.90033E-001	  8.72366E-001	  8.27752E-001	  8.00363E-001	  7.51338E-001	  7.36527E-001	  7.05207E-001
  8.32000E-002	  9.11183E-001	  8.84690E-001	  8.65507E-001	  8.20084E-001	  7.85292E-001	  7.38481E-001	  7.21937E-001	  6.86778E-001
  8.96000E-002	  9.08251E-001	  8.79446E-001	  8.57104E-001	  8.06916E-001	  7.72588E-001	  7.21973E-001	  7.04300E-001	  6.70352E-001
  9.60000E-002	  9.05216E-001	  8.74177E-001	  8.50787E-001	  7.98101E-001	  7.60430E-001	  7.08359E-001	  6.89635E-001	  6.52328E-001
  1.02400E-001	  9.02905E-001	  8.69774E-001	  8.44021E-001	  7.85712E-001	  7.47064E-001	  6.93735E-001	  6.73709E-001	  6.35982E-001
  1.15200E-001	  8.97671E-001	  8.60072E-001	  8.28999E-001	  7.65147E-001	  7.23171E-001	  6.66121E-001	  6.41850E-001	  6.03162E-001
  1.28000E-001	  8.92867E-001	  8.50491E-001	  8.14575E-001	  7.47648E-001	  6.98142E-001	  6.39750E-001	  6.13956E-001	  5.73482E-001
  1.40800E-001	  8.88160E-001	  8.41699E-001	  8.01831E-001	  7.30854E-001	  6.76103E-001	  6.15271E-001	  5.86553E-001	  5.45027E-001
  1.53600E-001	  8.83575E-001	  8.32342E-001	  7.88590E-001	  7.11214E-001	  6.55346E-001	  5.91581E-001	  5.60089E-001	  5.17440E-001
  1.66400E-001	  8.78418E-001	  8.24065E-001	  7.73993E-001	  6.92891E-001	  6.35437E-001	  5.68580E-001	  5.34048E-001	  4.91270E-001
  1.79200E-001	  8.73248E-001	  8.15603E-001	  7.60354E-001	  6.75541E-001	  6.15579E-001	  5.45487E-001	  5.09676E-001	  4.66873E-001
  1.92000E-001	  8.69065E-001	  8.06110E-001	  7.48526E-001	  6.59402E-001	  5.93400E-001	  5.23574E-001	  4.87596E-001	  4.44966E-001
  2.04800E-001	  8.64247E-001	  7.98304E-001	  7.35775E-001	  6.43363E-001	  5.74588E-001	  5.03806E-001	  4.66275E-001	  4.23636E-001
  2.30400E-001	  8.55384E-001	  7.80922E-001	  7.10116E-001	  6.11169E-001	  5.37877E-001	  4.65576E-001	  4.26777E-001	  3.82410E-001
  2.56000E-001	  8.45533E-001	  7.65439E-001	  6.86399E-001	  5.81835E-001	  5.03766E-001	  4.30162E-001	  3.89513E-001	  3.46367E-001
  2.81600E-001	  8.36722E-001	  7.49538E-001	  6.63731E-001	  5.53725E-001	  4.71745E-001	  3.97684E-001	  3.55374E-001	  3.11321E-001
  3.07200E-001	  8.27672E-001	  7.33830E-001	  6.39859E-001	  5.25857E-001	  4.43314E-001	  3.67814E-001	  3.24412E-001	  2.81084E-001
  3.32800E-001	  8.18769E-001	  7.18307E-001	  6.17926E-001	  4.99996E-001	  4.15136E-001	  3.40931E-001	  2.96594E-001	  2.53832E-001
  3.58400E-001	  8.09982E-001	  7.03043E-001	  5.98089E-001	  4.76159E-001	  3.88826E-001	  3.15116E-001	  2.70604E-001	  2.29688E-001
  3.84000E-001	  8.01028E-001	  6.88918E-001	  5.77126E-001	  4.53915E-001	  3.64639E-001	  2.91744E-001	  2.48150E-001	  2.06901E-001
  4.09600E-001	  7.92743E-001	  6.74201E-001	  5.57328E-001	  4.32086E-001	  3.42994E-001	  2.70797E-001	  2.27209E-001	  1.88294E-001
  4.60800E-001	  7.76163E-001	  6.46175E-001	  5.19990E-001	  3.91042E-001	  3.02121E-001	  2.33233E-001	  1.90094E-001	  1.55166E-001
  5.12000E-001	  7.59590E-001	  6.19225E-001	  4.85085E-001	  3.54838E-001	  2.66232E-001	  2.00007E-001	  1.58825E-001	  1.28184E-001
  5.63200E-001	  7.43393E-001	  5.92719E-001	  4.52478E-001	  3.20778E-001	  2.34971E-001	  1.69825E-001	  1.33317E-001	  1.05882E-001
  6.14400E-001	  7.27686E-001	  5.67705E-001	  4.22130E-001	  2.90620E-001	  2.07206E-001	  1.45865E-001	  1.12525E-001	  8.75934E-002
  6.65600E-001	  7.12253E-001	  5.44100E-001	  3.94464E-001	  2.62931E-001	  1.84432E-001	  1.24447E-001	  9.42474E-002	  7.17664E-002
  7.16800E-001	  6.97224E-001	  5.20968E-001	  3.68405E-001	  2.39435E-001	  1.63711E-001	  1.06918E-001	  7.92776E-002	  5.93638E-002
  7.68000E-001	  6.82606E-001	  4.99166E-001	  3.44845E-001	  2.17881E-001	  1.45031E-001	  9.13034E-002	  6.64994E-002	  4.91979E-002
  8.19200E-001	  6.68331E-001	  4.78415E-001	  3.23336E-001	  1.98620E-001	  1.28565E-001	  7.86617E-002	  5.62147E-002	  4.14555E-002
  9.21600E-001	  6.40233E-001	  4.38848E-001	  2.83536E-001	  1.63534E-001	  1.01977E-001	  5.87648E-002	  3.92438E-002	  2.97247E-002
  1.02400E+000	  6.13740E-001	  4.03046E-001	  2.47963E-001	  1.35181E-001	  8.17009E-002	  4.33071E-002	  2.71186E-002	  2.17396E-002
  1.12640E+000	  5.88413E-001	  3.69185E-001	  2.17293E-001	  1.11919E-001	  6.51713E-002	  3.10093E-002	  1.93240E-002	  1.62716E-002
  1.22880E+000	  5.64466E-001	  3.38250E-001	  1.89937E-001	  9.37943E-002	  5.17996E-002	  2.20527E-002	  1.45245E-002	  1.16943E-002
  1.33120E+000	  5.41491E-001	  3.11109E-001	  1.66665E-001	  7.84814E-002	  4.19685E-002	  1.48706E-002	  1.01611E-002	  1.02553E-002
  1.43360E+000	  5.19740E-001	  2.86674E-001	  1.45903E-001	  6.58265E-002	  3.45904E-002	  1.03448E-002	  6.78336E-003	  7.93216E-003
  1.53600E+000	  4.98565E-001	  2.64063E-001	  1.28249E-001	  5.41114E-002	  2.79352E-002	  6.96728E-003	  3.68436E-003	  6.33414E-003
  1.63840E+000	  4.78808E-001	  2.43574E-001	  1.12895E-001	  4.55493E-002	  2.36299E-002	  4.85160E-003	  2.53108E-003	  5.67125E-003
  1.84320E+000	  4.41636E-001	  2.06676E-001	  8.73401E-002	  3.13174E-002	  1.50735E-002	  1.63478E-003	  1.73110E-003	  4.70425E-003
  2.04800E+000	  4.07676E-001	  1.75602E-001	  6.92786E-002	  2.04633E-002	  9.51850E-003	  9.13533E-004	  1.25915E-003	  6.19121E-003
  2.25280E+000	  3.76871E-001	  1.49088E-001	  5.51762E-002	  1.09537E-002	  5.46669E-003	  1.39678E-003	  3.27656E-004	  5.96574E-003
  2.45760E+000	  3.48440E-001	  1.27231E-001	  4.42192E-002	  4.77971E-003	  3.40641E-003	  1.05406E-003	 -1.65764E-003	  3.57452E-003
  2.66240E+000	  3.21866E-001	  1.09166E-001	  3.66546E-002	  1.39978E-003	  2.94648E-003	  4.77218E-004	 -3.74701E-003	  3.57519E-003
  2.86720E+000	  2.96694E-001	  9.39566E-002	  3.10509E-002	  5.39624E-004	  2.82297E-003	 -1.32113E-003	 -2.86497E-003	  2.72058E-003
  3.07200E+000	  2.73680E-001	  8.05648E-002	  2.49952E-002	  7.40346E-004	  3.59249E-003	 -9.72810E-004	 -9.44722E-004	  2.40084E-003
  3.27680E+000	  2.52540E-001	  7.00655E-002	  2.18783E-002	  2.25694E-003	  3.16843E-003	 -1.10254E-003	 -4.68814E-004	  4.01428E-003
  3.68640E+000	  2.13750E-001	  5.31631E-002	  1.81871E-002	  2.48417E-003	  8.58009E-004	 -1.60945E-003	 -3.27316E-003	  6.20203E-003
  4.09600E+000	  1.82051E-001	  4.06873E-002	  1.69146E-002	  2.13001E-003	 -2.25738E-003	 -1.21772E-004	 -1.03070E-003	  8.35538E-004
  4.50560E+000	  1.54612E-001	  3.08225E-002	  1.19366E-002	  2.00363E-003	 -4.88456E-003	  2.58280E-003	  6.31215E-004	 -3.70515E-003
  4.91520E+000	  1.31185E-001	  2.35491E-002	  8.02159E-003	  2.71105E-003	 -5.68964E-003	  4.38508E-003	  2.22667E-003	 -6.25864E-003
  5.32480E+000	  1.12728E-001	  1.80960E-002	  2.77211E-003	  1.82469E-003	 -4.66893E-003	  4.96224E-003	 -1.92580E-003	 -3.57826E-003
  5.73440E+000	  9.72576E-002	  1.49225E-002	  8.07934E-004	  7.51450E-004	  6.41254E-004	  6.06602E-003	 -3.28850E-003	  1.24353E-003
  6.14400E+000	  8.25907E-002	  1.32690E-002	  1.36895E-003	 -1.19164E-003	  4.64625E-003	  1.25990E-003	 -4.28923E-003	  1.97209E-004
  6.55360E+000	  6.98377E-002	  1.25069E-002	  1.20444E-003	 -3.60913E-003	  3.02642E-003	 -1.23855E-003	 -2.81657E-003	  1.57471E-003
  7.37280E+000	  5.12358E-002	  9.82650E-003	 -1.91420E-003	 -1.90460E-003	 -1.10994E-004	 -4.95736E-003	 -5.68979E-003	  5.53142E-003
  8.19200E+000	  3.94088E-002	  8.24246E-003	 -3.17610E-003	 -5.47101E-004	 -1.84613E-003	 -4.66255E-003	 -5.11352E-003	  3.83470E-003
  9.01120E+000	  3.07577E-002	  8.09367E-003	  1.33161E-003	  1.42753E-003	  5.06055E-004	 -4.79644E-005	 -5.35392E-004	  1.72836E-003
  9.83040E+000	  2.49808E-002	  9.67563E-003	 -3.46425E-003	  6.98614E-004	  1.52115E-003	 -5.68442E-004	  1.09954E-003	  4.00192E-003
  1.06496E+001	  2.11877E-002	  7.37192E-003	 -8.21387E-003	  2.06574E-003	  2.05160E-003	 -2.09633E-003	  4.24816E-004	 -3.58709E-004
  1.14688E+001	  1.59278E-002	  4.53641E-003	 -9.93224E-004	  1.38723E-004	 -8.16428E-004	 -1.22667E-003	  3.90546E-003	  4.31674E-003
  1.22880E+001	  1.57858E-002	  1.77989E-003	  5.95648E-004	 -3.25164E-003	 -8.34844E-004	  4.48671E-004	  5.95588E-003	  1.68749E-003
  1.31072E+001	  1.47036E-002	  3.72601E-003	  5.56189E-003	 -5.01031E-003	 -3.11164E-004	  7.39076E-005	  5.48696E-003	 -7.54081E-004
  1.47456E+001	  1.01321E-002	  7.31874E-003	  3.05605E-003	 -9.28568E-004	 -1.15534E-004	 -1.20082E-003	  2.70318E-003	 -2.02933E-003
  1.63840E+001	  4.25298E-003	  7.79646E-003	 -5.11765E-003	 -9.12663E-004	 -5.02652E-003	  3.00823E-003	  2.90313E-003	  3.94395E-004
  1.80224E+001	  7.09799E-003	  6.64698E-003	 -2.13797E-003	  4.76235E-004	  5.80289E-004	  3.15327E-003	 -1.42852E-003	  1.86865E-003
  1.96608E+001	  6.07530E-003	 -2.79350E-003	 -2.07817E-003	  3.08947E-003	 -7.11261E-004	 -2.26013E-003	 -1.67641E-003	  1.22000E-004
  2.12992E+001	  2.71052E-003	 -5.16609E-003	 -7.94206E-004	  4.89059E-003	 -6.63180E-004	 -2.25424E-003	  2.49313E-003	 -1.20601E-003
  2.29376E+001	 -7.04807E-004	 -5.99966E-003	  8.21526E-003	  9.44086E-004	 -1.90019E-003	  9.02661E-004	 -9.13265E-004	 -1.21238E-003
  2.45760E+001	 -2.42770E-003	 -3.06524E-003	  1.25876E-002	 -2.21475E-003	 -3.12295E-004	  2.63529E-003	 -6.30644E-005	 -8.04808E-004
  2.62144E+001	  1.55670E-004	 -1.17022E-003	  6.86119E-003	 -1.76899E-003	 -5.15494E-004	 -1.70457E-004	  1.15209E-004	 -1.10967E-003
  2.94912E+001	  1.05943E-002	 -1.61538E-003	  5.47436E-003	  5.50627E-004	  3.41348E-004	  1.40064E-003	 -8.04013E-004	 -1.13988E-003
  3.27680E+001	  4.52431E-003	 -3.47762E-004	  1.50351E-003	  4.06975E-004	  3.81441E-004	 -2.49281E-003	  1.90004E-004	 -1.28236E-003
  3.60448E+001	 -1.00351E-003	  2.96928E-003	  4.13643E-003	  3.60510E-003	  3.47223E-004	 -3.41822E-003	  1.27071E-003	  2.14190E-003
  3.93216E+001	 -4.86012E-003	 -2.61531E-003	 -3.90566E-003	 -3.58509E-003	 -3.87999E-004	 -7.46440E-004	  1.17875E-003	 -2.10532E-004
  4.25984E+001	 -5.42297E-003	  2.15210E-003	  8.46177E-004	  3.42852E-003	 -2.29846E-004	  2.24662E-003	 -1.37229E-003	  1.91526E-003
