ALV-7004/USB
Date :	"08.06.2022"
Time :	"14:19:29"
Samplename : 	"Samplename needed."
SampMemo(0) : 	""
SampMemo(1) : 	""
SampMemo(2) : 	""
SampMemo(3) : 	""
SampMemo(4) : 	""
SampMemo(5) : 	""
SampMemo(6) : 	""
SampMemo(7) : 	""
SampMemo(8) : 	""
SampMemo(9) : 	""
Temperature [K] :	     297.91756
Viscosity [cp]  :	       0.89490
Refractive Index:	       1.33200
Wavelength [nm] :	     632.80000
Angle [°]       :	      30.00000
Duration [s]    :	        10
FloatDur [ms]   :	         9961
Stop TP [ms]   :	  16777216
Runs            :	         1
Mode            :	"C-CH0/1+1/0"
MeanCR0 [kHz]   :	     589.23338
MeanCR1 [kHz]   :	     586.24788
MeanCR2 [kHz]   :	       0.00000
MeanCR3 [kHz]   :	       0.00000

"Correlation"
  2.50000E-005	  2.57125E+000	  2.58674E+000	  0.00000E+000	  0.00000E+000
  5.00000E-005	  2.56347E+000	  2.57465E+000	  0.00000E+000	  0.00000E+000
  7.50000E-005	  2.56742E+000	  2.56470E+000	  0.00000E+000	  0.00000E+000
  1.00000E-004	  2.56728E+000	  2.55870E+000	  0.00000E+000	  0.00000E+000
  1.25000E-004	  2.56636E+000	  2.55566E+000	  0.00000E+000	  0.00000E+000
  1.50000E-004	  2.56268E+000	  2.56959E+000	  0.00000E+000	  0.00000E+000
  1.75000E-004	  2.58024E+000	  2.56896E+000	  0.00000E+000	  0.00000E+000
  2.00000E-004	  2.56671E+000	  2.55633E+000	  0.00000E+000	  0.00000E+000
  2.25000E-004	  2.56325E+000	  2.56747E+000	  0.00000E+000	  0.00000E+000
  2.50000E-004	  2.56594E+000	  2.56449E+000	  0.00000E+000	  0.00000E+000
  2.75000E-004	  2.57028E+000	  2.56448E+000	  0.00000E+000	  0.00000E+000
  3.00000E-004	  2.57220E+000	  2.57936E+000	  0.00000E+000	  0.00000E+000
  3.25000E-004	  2.55856E+000	  2.55748E+000	  0.00000E+000	  0.00000E+000
  3.50000E-004	  2.56936E+000	  2.57704E+000	  0.00000E+000	  0.00000E+000
  3.75000E-004	  2.56369E+000	  2.56427E+000	  0.00000E+000	  0.00000E+000
  4.00000E-004	  2.57008E+000	  2.56570E+000	  0.00000E+000	  0.00000E+000
  4.50000E-004	  2.56655E+000	  2.56164E+000	  0.00000E+000	  0.00000E+000
  5.00000E-004	  2.56938E+000	  2.57124E+000	  0.00000E+000	  0.00000E+000
  5.50000E-004	  2.57284E+000	  2.56905E+000	  0.00000E+000	  0.00000E+000
  6.00000E-004	  2.57053E+000	  2.56976E+000	  0.00000E+000	  0.00000E+000
  6.50000E-004	  2.56780E+000	  2.57210E+000	  0.00000E+000	  0.00000E+000
  7.00000E-004	  2.56975E+000	  2.57702E+000	  0.00000E+000	  0.00000E+000
  7.50000E-004	  2.57255E+000	  2.58386E+000	  0.00000E+000	  0.00000E+000
  8.00000E-004	  2.57649E+000	  2.57735E+000	  0.00000E+000	  0.00000E+000
  9.00000E-004	  2.57168E+000	  2.56921E+000	  0.00000E+000	  0.00000E+000
  1.00000E-003	  2.56901E+000	  2.56820E+000	  0.00000E+000	  0.00000E+000
  1.10000E-003	  2.57102E+000	  2.57683E+000	  0.00000E+000	  0.00000E+000
  1.20000E-003	  2.57198E+000	  2.57375E+000	  0.00000E+000	  0.00000E+000
  1.30000E-003	  2.56629E+000	  2.56623E+000	  0.00000E+000	  0.00000E+000
  1.40000E-003	  2.56726E+000	  2.56310E+000	  0.00000E+000	  0.00000E+000
  1.50000E-003	  2.57256E+000	  2.57383E+000	  0.00000E+000	  0.00000E+000
  1.60000E-003	  2.56858E+000	  2.56826E+000	  0.00000E+000	  0.00000E+000
  1.80000E-003	  2.56863E+000	  2.56740E+000	  0.00000E+000	  0.00000E+000
  2.00000E-003	  2.56728E+000	  2.56678E+000	  0.00000E+000	  0.00000E+000
  2.20000E-003	  2.56933E+000	  2.56637E+000	  0.00000E+000	  0.00000E+000
  2.40000E-003	  2.56527E+000	  2.56604E+000	  0.00000E+000	  0.00000E+000
  2.60000E-003	  2.56840E+000	  2.56949E+000	  0.00000E+000	  0.00000E+000
  2.80000E-003	  2.56456E+000	  2.56413E+000	  0.00000E+000	  0.00000E+000
  3.00000E-003	  2.56910E+000	  2.56964E+000	  0.00000E+000	  0.00000E+000
  3.20000E-003	  2.56639E+000	  2.56681E+000	  0.00000E+000	  0.00000E+000
  3.60000E-003	  2.56640E+000	  2.56560E+000	  0.00000E+000	  0.00000E+000
  4.00000E-003	  2.56802E+000	  2.56823E+000	  0.00000E+000	  0.00000E+000
  4.40000E-003	  2.56931E+000	  2.56943E+000	  0.00000E+000	  0.00000E+000
  4.80000E-003	  2.56748E+000	  2.56498E+000	  0.00000E+000	  0.00000E+000
  5.20000E-003	  2.56825E+000	  2.56729E+000	  0.00000E+000	  0.00000E+000
  5.60000E-003	  2.56687E+000	  2.56672E+000	  0.00000E+000	  0.00000E+000
  6.00000E-003	  2.56707E+000	  2.56739E+000	  0.00000E+000	  0.00000E+000
  6.40000E-003	  2.56655E+000	  2.56779E+000	  0.00000E+000	  0.00000E+000
  7.20000E-003	  2.56572E+000	  2.56580E+000	  0.00000E+000	  0.00000E+000
  8.00000E-003	  2.56667E+000	  2.56671E+000	  0.00000E+000	  0.00000E+000
  8.80000E-003	  2.56677E+000	  2.56714E+000	  0.00000E+000	  0.00000E+000
  9.60000E-003	  2.56490E+000	  2.56449E+000	  0.00000E+000	  0.00000E+000
  1.04000E-002	  2.56443E+000	  2.56584E+000	  0.00000E+000	  0.00000E+000
  1.12000E-002	  2.56465E+000	  2.56490E+000	  0.00000E+000	  0.00000E+000
  1.20000E-002	  2.56534E+000	  2.56441E+000	  0.00000E+000	  0.00000E+000
  1.28000E-002	  2.56461E+000	  2.56394E+000	  0.00000E+000	  0.00000E+000
  1.44000E-002	  2.56306E+000	  2.56379E+000	  0.00000E+000	  0.00000E+000
  1.60000E-002	  2.56273E+000	  2.56230E+000	  0.00000E+000	  0.00000E+000
  1.76000E-002	  2.56188E+000	  2.56144E+000	  0.00000E+000	  0.00000E+000
  1.92000E-002	  2.56076E+000	  2.56056E+000	  0.00000E+000	  0.00000E+000
  2.08000E-002	  2.55945E+000	  2.55937E+000	  0.00000E+000	  0.00000E+000
  2.24000E-002	  2.55968E+000	  2.55956E+000	  0.00000E+000	  0.00000E+000
  2.40000E-002	  2.55901E+000	  2.55944E+000	  0.00000E+000	  0.00000E+000
  2.56000E-002	  2.55858E+000	  2.55834E+000	  0.00000E+000	  0.00000E+000
  2.88000E-002	  2.55679E+000	  2.55596E+000	  0.00000E+000	  0.00000E+000
  3.20000E-002	  2.55544E+000	  2.55522E+000	  0.00000E+000	  0.00000E+000
  3.52000E-002	  2.55449E+000	  2.55481E+000	  0.00000E+000	  0.00000E+000
  3.84000E-002	  2.55308E+000	  2.55311E+000	  0.00000E+000	  0.00000E+000
  4.16000E-002	  2.55167E+000	  2.55173E+000	  0.00000E+000	  0.00000E+000
  4.48000E-002	  2.55038E+000	  2.55028E+000	  0.00000E+000	  0.00000E+000
  4.80000E-002	  2.54886E+000	  2.54868E+000	  0.00000E+000	  0.00000E+000
  5.12000E-002	  2.54753E+000	  2.54747E+000	  0.00000E+000	  0.00000E+000
  5.76000E-002	  2.54450E+000	  2.54461E+000	  0.00000E+000	  0.00000E+000
  6.40000E-002	  2.54181E+000	  2.54233E+000	  0.00000E+000	  0.00000E+000
  7.04000E-002	  2.53898E+000	  2.53863E+000	  0.00000E+000	  0.00000E+000
  7.68000E-002	  2.53568E+000	  2.53503E+000	  0.00000E+000	  0.00000E+000
  8.32000E-002	  2.53326E+000	  2.53304E+000	  0.00000E+000	  0.00000E+000
  8.96000E-002	  2.53052E+000	  2.53079E+000	  0.00000E+000	  0.00000E+000
  9.60000E-002	  2.52798E+000	  2.52789E+000	  0.00000E+000	  0.00000E+000
  1.02400E-001	  2.52514E+000	  2.52490E+000	  0.00000E+000	  0.00000E+000
  1.15200E-001	  2.51961E+000	  2.51983E+000	  0.00000E+000	  0.00000E+000
  1.28000E-001	  2.51393E+000	  2.51374E+000	  0.00000E+000	  0.00000E+000
  1.40800E-001	  2.50862E+000	  2.50860E+000	  0.00000E+000	  0.00000E+000
  1.53600E-001	  2.50330E+000	  2.50350E+000	  0.00000E+000	  0.00000E+000
  1.66400E-001	  2.49789E+000	  2.49838E+000	  0.00000E+000	  0.00000E+000
  1.79200E-001	  2.49196E+000	  2.49219E+000	  0.00000E+000	  0.00000E+000
  1.92000E-001	  2.48654E+000	  2.48653E+000	  0.00000E+000	  0.00000E+000
  2.04800E-001	  2.48091E+000	  2.48113E+000	  0.00000E+000	  0.00000E+000
  2.30400E-001	  2.47030E+000	  2.47044E+000	  0.00000E+000	  0.00000E+000
  2.56000E-001	  2.45961E+000	  2.45977E+000	  0.00000E+000	  0.00000E+000
  2.81600E-001	  2.44844E+000	  2.44838E+000	  0.00000E+000	  0.00000E+000
  3.07200E-001	  2.43808E+000	  2.43816E+000	  0.00000E+000	  0.00000E+000
  3.32800E-001	  2.42762E+000	  2.42776E+000	  0.00000E+000	  0.00000E+000
  3.58400E-001	  2.41686E+000	  2.41716E+000	  0.00000E+000	  0.00000E+000
  3.84000E-001	  2.40652E+000	  2.40680E+000	  0.00000E+000	  0.00000E+000
  4.09600E-001	  2.39609E+000	  2.39635E+000	  0.00000E+000	  0.00000E+000
  4.60800E-001	  2.37523E+000	  2.37533E+000	  0.00000E+000	  0.00000E+000
  5.12000E-001	  2.35476E+000	  2.35487E+000	  0.00000E+000	  0.00000E+000
  5.63200E-001	  2.33460E+000	  2.33494E+000	  0.00000E+000	  0.00000E+000
  6.14400E-001	  2.31447E+000	  2.31504E+000	  0.00000E+000	  0.00000E+000
  6.65600E-001	  2.29459E+000	  2.29515E+000	  0.00000E+000	  0.00000E+000
  7.16800E-001	  2.27497E+000	  2.27532E+000	  0.00000E+000	  0.00000E+000
  7.68000E-001	  2.25577E+000	  2.25608E+000	  0.00000E+000	  0.00000E+000
  8.19200E-001	  2.23673E+000	  2.23707E+000	  0.00000E+000	  0.00000E+000
  9.21600E-001	  2.19916E+000	  2.19937E+000	  0.00000E+000	  0.00000E+000
  1.02400E+000	  2.16246E+000	  2.16260E+000	  0.00000E+000	  0.00000E+000
  1.12640E+000	  2.12645E+000	  2.12682E+000	  0.00000E+000	  0.00000E+000
  1.22880E+000	  2.09081E+000	  2.09126E+000	  0.00000E+000	  0.00000E+000
  1.33120E+000	  2.05568E+000	  2.05620E+000	  0.00000E+000	  0.00000E+000
  1.43360E+000	  2.02133E+000	  2.02180E+000	  0.00000E+000	  0.00000E+000
  1.53600E+000	  1.98756E+000	  1.98822E+000	  0.00000E+000	  0.00000E+000
  1.63840E+000	  1.95460E+000	  1.95524E+000	  0.00000E+000	  0.00000E+000
  1.84320E+000	  1.89051E+000	  1.89110E+000	  0.00000E+000	  0.00000E+000
  2.04800E+000	  1.82822E+000	  1.82889E+000	  0.00000E+000	  0.00000E+000
  2.25280E+000	  1.76775E+000	  1.76860E+000	  0.00000E+000	  0.00000E+000
  2.45760E+000	  1.71040E+000	  1.71140E+000	  0.00000E+000	  0.00000E+000
  2.66240E+000	  1.65397E+000	  1.65472E+000	  0.00000E+000	  0.00000E+000
  2.86720E+000	  1.59934E+000	  1.60018E+000	  0.00000E+000	  0.00000E+000
  3.07200E+000	  1.54623E+000	  1.54700E+000	  0.00000E+000	  0.00000E+000
  3.27680E+000	  1.49472E+000	  1.49514E+000	  0.00000E+000	  0.00000E+000
  3.68640E+000	  1.39638E+000	  1.39641E+000	  0.00000E+000	  0.00000E+000
  4.09600E+000	  1.30360E+000	  1.30350E+000	  0.00000E+000	  0.00000E+000
  4.50560E+000	  1.21692E+000	  1.21706E+000	  0.00000E+000	  0.00000E+000
  4.91520E+000	  1.13612E+000	  1.13654E+000	  0.00000E+000	  0.00000E+000
  5.32480E+000	  1.06233E+000	  1.06282E+000	  0.00000E+000	  0.00000E+000
  5.73440E+000	  9.92777E-001	  9.93211E-001	  0.00000E+000	  0.00000E+000
  6.14400E+000	  9.27089E-001	  9.27574E-001	  0.00000E+000	  0.00000E+000
  6.55360E+000	  8.66153E-001	  8.66715E-001	  0.00000E+000	  0.00000E+000
  7.37280E+000	  7.51330E-001	  7.51901E-001	  0.00000E+000	  0.00000E+000
  8.19200E+000	  6.46431E-001	  6.46796E-001	  0.00000E+000	  0.00000E+000
  9.01120E+000	  5.53549E-001	  5.54110E-001	  0.00000E+000	  0.00000E+000
  9.83040E+000	  4.76426E-001	  4.76832E-001	  0.00000E+000	  0.00000E+000
  1.06496E+001	  4.11491E-001	  4.11619E-001	  0.00000E+000	  0.00000E+000
  1.14688E+001	  3.56733E-001	  3.56541E-001	  0.00000E+000	  0.00000E+000
  1.22880E+001	  3.08675E-001	  3.08104E-001	  0.00000E+000	  0.00000E+000
  1.31072E+001	  2.65067E-001	  2.64846E-001	  0.00000E+000	  0.00000E+000
  1.47456E+001	  1.89421E-001	  1.89875E-001	  0.00000E+000	  0.00000E+000
  1.63840E+001	  1.30881E-001	  1.30845E-001	  0.00000E+000	  0.00000E+000
  1.80224E+001	  8.70082E-002	  8.65624E-002	  0.00000E+000	  0.00000E+000
  1.96608E+001	  5.50354E-002	  5.48262E-002	  0.00000E+000	  0.00000E+000
  2.12992E+001	  2.45768E-002	  2.48286E-002	  0.00000E+000	  0.00000E+000
  2.29376E+001	  4.51706E-003	  4.23494E-003	  0.00000E+000	  0.00000E+000
  2.45760E+001	 -7.39341E-003	 -7.70555E-003	  0.00000E+000	  0.00000E+000
  2.62144E+001	 -8.12843E-003	 -8.83467E-003	  0.00000E+000	  0.00000E+000
  2.94912E+001	 -1.47608E-002	 -1.51371E-002	  0.00000E+000	  0.00000E+000
  3.27680E+001	 -1.69848E-002	 -1.68332E-002	  0.00000E+000	  0.00000E+000
  3.60448E+001	 -1.55357E-002	 -1.51469E-002	  0.00000E+000	  0.00000E+000
  3.93216E+001	 -1.54814E-002	 -1.50905E-002	  0.00000E+000	  0.00000E+000
  4.25984E+001	 -6.93577E-003	 -6.53930E-003	  0.00000E+000	  0.00000E+000
  4.58752E+001	 -2.61163E-003	 -3.31797E-003	  0.00000E+000	  0.00000E+000
  4.91520E+001	  1.50368E-003	  1.60594E-004	  0.00000E+000	  0.00000E+000
  5.24288E+001	 -5.69959E-003	 -7.09488E-003	  0.00000E+000	  0.00000E+000
  5.89824E+001	 -2.81294E-002	 -2.92603E-002	  0.00000E+000	  0.00000E+000
  6.55360E+001	 -1.00881E-002	 -1.11876E-002	  0.00000E+000	  0.00000E+000
  7.20896E+001	 -1.33821E-002	 -1.42339E-002	  0.00000E+000	  0.00000E+000
  7.86432E+001	 -5.81665E-003	 -6.24005E-003	  0.00000E+000	  0.00000E+000
  8.51968E+001	  1.39242E-002	  1.40034E-002	  0.00000E+000	  0.00000E+000
  9.17504E+001	  1.07238E-002	  1.03820E-002	  0.00000E+000	  0.00000E+000
  9.83040E+001	 -2.56099E-002	 -2.61052E-002	  0.00000E+000	  0.00000E+000
  1.04858E+002	 -1.50501E-002	 -1.56611E-002	  0.00000E+000	  0.00000E+000
  1.17965E+002	 -1.84417E-002	 -1.89838E-002	  0.00000E+000	  0.00000E+000
  1.31072E+002	 -4.22364E-002	 -4.17445E-002	  0.00000E+000	  0.00000E+000
  1.44179E+002	  5.19541E-003	  5.76832E-003	  0.00000E+000	  0.00000E+000
  1.57286E+002	  5.07218E-002	  5.07702E-002	  0.00000E+000	  0.00000E+000
  1.70394E+002	  4.35545E-002	  4.37587E-002	  0.00000E+000	  0.00000E+000
  1.83501E+002	  1.05854E-002	  1.07966E-002	  0.00000E+000	  0.00000E+000
  1.96608E+002	  2.98917E-002	  3.05358E-002	  0.00000E+000	  0.00000E+000
  2.09715E+002	  2.20754E-002	  2.25530E-002	  0.00000E+000	  0.00000E+000
  2.35930E+002	  1.03947E-002	  1.00244E-002	  0.00000E+000	  0.00000E+000
  2.62144E+002	  1.47422E-002	  1.49955E-002	  0.00000E+000	  0.00000E+000
  2.88358E+002	  5.19047E-003	  5.20456E-003	  0.00000E+000	  0.00000E+000
  3.14573E+002	 -2.84036E-002	 -2.83792E-002	  0.00000E+000	  0.00000E+000
  3.40787E+002	  1.65851E-002	  1.57272E-002	  0.00000E+000	  0.00000E+000
  3.67002E+002	  6.10946E-003	  6.16412E-003	  0.00000E+000	  0.00000E+000
  3.93216E+002	 -3.57109E-002	 -3.52670E-002	  0.00000E+000	  0.00000E+000
  4.19430E+002	 -1.93336E-002	 -1.96948E-002	  0.00000E+000	  0.00000E+000
  4.71859E+002	  1.60212E-002	  1.59922E-002	  0.00000E+000	  0.00000E+000
  5.24288E+002	  1.76324E-002	  1.76836E-002	  0.00000E+000	  0.00000E+000
  5.76717E+002	  5.55088E-003	  5.45866E-003	  0.00000E+000	  0.00000E+000
  6.29146E+002	  1.54474E-002	  1.52296E-002	  0.00000E+000	  0.00000E+000
  6.81574E+002	 -7.61583E-003	 -7.47137E-003	  0.00000E+000	  0.00000E+000
  7.34003E+002	  1.86300E-002	  1.88191E-002	  0.00000E+000	  0.00000E+000
  7.86432E+002	  4.43837E-003	  4.23514E-003	  0.00000E+000	  0.00000E+000
  8.38861E+002	 -1.72131E-002	 -1.73236E-002	  0.00000E+000	  0.00000E+000
  9.43718E+002	  4.04462E-004	  1.65725E-004	  0.00000E+000	  0.00000E+000
  1.04858E+003	 -1.34488E-002	 -1.33113E-002	  0.00000E+000	  0.00000E+000
  1.15343E+003	  2.39004E-002	  2.42977E-002	  0.00000E+000	  0.00000E+000
  1.25829E+003	 -8.78747E-003	 -8.62771E-003	  0.00000E+000	  0.00000E+000
  1.36315E+003	  1.40560E-002	  1.37737E-002	  0.00000E+000	  0.00000E+000
  1.46801E+003	 -2.28757E-002	 -2.26529E-002	  0.00000E+000	  0.00000E+000
  1.57286E+003	  1.48963E-002	  1.49201E-002	  0.00000E+000	  0.00000E+000
  1.67772E+003	  1.27435E-002	  1.27556E-002	  0.00000E+000	  0.00000E+000
  1.88744E+003	 -1.81604E-002	 -1.81845E-002	  0.00000E+000	  0.00000E+000
  2.09715E+003	 -3.27093E-002	 -3.31577E-002	  0.00000E+000	  0.00000E+000
  2.30687E+003	 -1.47304E-003	 -1.53725E-003	  0.00000E+000	  0.00000E+000
  2.51658E+003	  1.34554E-002	  1.34743E-002	  0.00000E+000	  0.00000E+000
  2.72630E+003	 -2.48843E-002	 -2.49678E-002	  0.00000E+000	  0.00000E+000
  2.93601E+003	 -2.94029E-002	 -2.91428E-002	  0.00000E+000	  0.00000E+000
  3.14573E+003	 -1.33216E-002	 -1.32350E-002	  0.00000E+000	  0.00000E+000

"Count Rate"
       0.03906	     621.85559	     619.01794	     621.85559	     619.01794
       0.07813	     805.48511	     791.83368	     805.48511	     791.83368
       0.11719	     449.70447	     447.83829	     449.70447	     447.83829
       0.15625	     446.20215	     437.61249	     446.20215	     437.61249
       0.19531	     281.72040	     279.08725	     281.72040	     279.08725
       0.23438	     594.75726	     579.13739	     594.75726	     579.13739
       0.27344	    1045.89331	    1041.87976	    1045.89331	    1041.87976
       0.31250	    1017.36340	    1006.72858	    1017.36340	    1006.72858
       0.35156	     420.38205	     413.35181	     420.38205	     413.35181
       0.39063	     995.07117	     984.84540	     995.07117	     984.84540
       0.42969	     413.65860	     410.84650	     413.65860	     410.84650
       0.46875	     595.29413	     596.41895	     595.29413	     596.41895
       0.50781	     415.83157	     410.05399	     415.83157	     410.05399
       0.54688	     800.62787	     804.99939	     800.62787	     804.99939
       0.58594	     472.96814	     474.39975	     472.96814	     474.39975
       0.62500	     439.32532	     434.39136	     439.32532	     434.39136
       0.66406	     886.67786	     883.17554	     886.67786	     883.17554
       0.70313	     287.75360	     283.38208	     287.75360	     283.38208
       0.74219	     687.40289	     692.77142	     687.40289	     692.77142
       0.78125	     346.06613	     349.46622	     346.06613	     349.46622
       0.82031	     351.76703	     353.40314	     351.76703	     353.40314
       0.85938	     400.08386	     395.73788	     400.08386	     395.73788
       0.89844	     927.12085	     930.98108	     927.12085	     930.98108
       0.93750	     719.71637	     721.30133	     719.71637	     721.30133
       0.97656	     445.12845	     443.31335	     445.12845	     443.31335
       1.01563	     524.96625	     522.76770	     524.96625	     522.76770
       1.05469	     654.24573	     656.54657	     654.24573	     656.54657
       1.09375	     802.57080	     796.15411	     802.57080	     796.15411
       1.13281	     503.59436	     497.79123	     503.59436	     497.79123
       1.17188	     601.88971	     595.60089	     601.88971	     595.60089
       1.21094	     276.93985	     272.03146	     276.93985	     272.03146
       1.25000	     323.87619	     321.98444	     323.87619	     321.98444
       1.28906	     391.08517	     393.66718	     391.08517	     393.66718
       1.32813	     346.44962	     346.83307	     346.44962	     346.83307
       1.36719	     661.60834	     654.24573	     661.60834	     654.24573
       1.40625	     330.59964	     322.36789	     330.59964	     322.36789
       1.44531	     413.68414	     403.15158	     413.68414	     403.15158
       1.48438	     288.46942	     285.06934	     288.46942	     285.06934
       1.52344	     465.32437	     458.80542	     465.32437	     458.80542
       1.56250	     292.30408	     291.86948	     292.30408	     291.86948
       1.60156	     304.77954	     306.79913	     304.77954	     306.79913
       1.64063	     620.75629	     616.71710	     620.75629	     616.71710
       1.67969	     499.01834	     496.71753	     499.01834	     496.71753
       1.71875	     472.30347	     470.97412	     472.30347	     470.97412
       1.75781	     569.03943	     559.42719	     569.03943	     559.42719
       1.79688	     469.87485	     460.72278	     469.87485	     460.72278
       1.83594	     522.46094	     524.99182	     522.46094	     524.99182
       1.87500	     478.46451	     479.25699	     478.46451	     479.25699
       1.91406	     445.79312	     451.00827	     445.79312	     451.00827
       1.95313	     356.72653	     352.27832	     356.72653	     352.27832
       1.99219	     727.66687	     724.95709	     727.66687	     724.95709
       2.03125	     837.38959	     832.07214	     837.38959	     832.07214
       2.07031	     719.53741	     717.87573	     719.53741	     717.87573
